TITLE,
DATA TYPE,INFRARED SPECTRUM
ORIGIN,JASCO
OWNER,
DATE,24/04/24
TIME,10:57:12
SPECTROMETER/DATA SYSTEM,
LOCALE,1033
RESOLUTION,
DELTAX,0.964233
XUNITS,1/CM
YUNITS,TRANSMITTANCE
FIRSTX,  649.8934
LASTX, 4000.6047
NPOINTS,    3476
FIRSTY,    99.19560
MAXY,   101.81164
MINY,    49.71292
XYDATA
649.8934,99.1956
650.8576,99.1013
651.8218,99.0108
652.7861,98.9297
653.7503,98.8595
654.7145,98.7754
655.6788,98.7049
656.6430,98.649
657.6072,98.603
658.5715,98.5676
659.5357,98.5481
660.4999,98.5428
661.4642,98.533
662.4284,98.4844
663.3926,98.3594
664.3569,98.1248
665.3211,97.7525
666.2853,97.2337
667.2496,96.6353
668.2138,96.1633
669.1780,96.0225
670.1423,96.1611
671.1065,96.3789
672.0707,96.5564
673.0350,96.673
673.9992,96.7481
674.9634,96.8087
675.9277,96.8778
676.8919,96.9736
677.8561,97.1106
678.8204,97.2995
679.7846,97.5431
680.7488,97.8311
681.7131,98.1392
682.6773,98.4399
683.6415,98.7168
684.6058,98.9725
685.5700,99.221
686.5342,99.4696
687.4985,99.7056
688.4627,99.895
689.4269,99.9956
690.3912,99.9789
691.3554,99.8611
692.3196,99.7318
693.2839,99.7314
694.2481,99.9425
695.2123,100.31
696.1766,100.709
697.1408,101.041
698.1050,101.266
699.0693,101.388
700.0335,101.442
700.9977,101.465
701.9620,101.488
702.9262,101.522
703.8904,101.567
704.8547,101.621
705.8189,101.678
706.7831,101.729
707.7474,101.761
708.7116,101.765
709.6758,101.743
710.6401,101.709
711.6043,101.679
712.5685,101.662
713.5328,101.649
714.4970,101.618
715.4612,101.812
716.4255,101.664
717.3897,101.477
718.3539,101.283
719.3182,101.119
720.2824,101.009
721.2466,100.96
722.2109,100.958
723.1751,100.981
724.1393,101.01
725.1036,101.031
726.0678,101.037
727.0320,101.032
727.9963,101.023
728.9605,101.027
729.9247,101.057
730.8890,101.121
731.8532,101.215
732.8174,101.327
733.7817,101.437
734.7459,101.523
735.7101,101.569
736.6744,101.562
737.6386,101.497
738.6028,101.384
739.5671,101.243
740.5313,101.1
741.4955,100.981
742.4598,100.899
743.4240,100.852
744.3882,100.828
745.3525,100.81
746.3167,100.787
747.2809,100.755
748.2452,100.711
749.2094,100.655
750.1736,100.582
751.1379,100.493
752.1021,100.392
753.0663,100.286
754.0306,100.185
754.9948,100.096
755.9590,100.017
756.9233,99.9409
757.8875,99.8628
758.8517,99.7817
759.8160,99.7051
760.7802,99.6454
761.7444,99.6126
762.7087,99.6075
763.6729,99.6189
764.6371,99.6288
765.6014,99.6212
766.5656,99.591
767.5298,99.5455
768.4941,99.4989
769.4583,99.463
770.4225,99.4401
771.3868,99.4244
772.3510,99.4063
773.3152,99.3777
774.2795,99.3335
775.2437,99.2697
776.2079,99.182
777.1722,99.0686
778.1364,98.9342
779.1006,98.7915
780.0649,98.6564
781.0291,98.5398
781.9933,98.4418
782.9576,98.3531
783.9218,98.2626
784.8860,98.1666
785.8503,98.0704
786.8145,97.9843
787.7787,97.9153
788.7430,97.8615
789.7072,97.813
790.6714,97.7569
791.6357,97.6827
792.5999,97.5863
793.5641,97.4706
794.5284,97.344
795.4926,97.2165
796.4568,97.096
797.4211,96.9842
798.3853,96.8757
799.3495,96.7613
800.3138,96.6334
801.2780,96.4902
802.2422,96.3344
803.2065,96.169
804.1707,95.9923
805.1349,95.7978
806.0992,95.5795
807.0634,95.3386
808.0276,95.0851
808.9919,94.8335
809.9561,94.594
810.9203,94.3671
811.8846,94.1447
812.8488,93.9176
813.8130,93.6842
814.7773,93.4536
815.7415,93.2422
816.7057,93.065
817.6700,92.9291
818.6342,92.8312
819.5984,92.7616
820.5627,92.7098
821.5269,92.6688
822.4911,92.6363
823.4554,92.6113
824.4196,92.591
825.3839,92.5696
826.3481,92.5394
827.3123,92.494
828.2766,92.4305
829.2408,92.3483
830.2050,92.247
831.1693,92.1237
832.1335,91.972
833.0977,91.7846
834.0620,91.5557
835.0262,91.2831
835.9904,90.9692
836.9547,90.6197
837.9189,90.2426
838.8831,89.8474
839.8474,89.4448
840.8116,89.0457
841.7758,88.6603
842.7401,88.2973
843.7043,87.9633
844.6685,87.663
845.6328,87.3992
846.5970,87.1725
847.5612,86.9815
848.5255,86.8231
849.4897,86.694
850.4539,86.5915
851.4182,86.5142
852.3824,86.461
853.3466,86.4291
854.3109,86.4136
855.2751,86.4085
856.2393,86.4091
857.2036,86.4136
858.1678,86.4238
859.1320,86.4435
860.0963,86.4767
861.0605,86.5265
862.0247,86.5956
862.9890,86.6879
863.9532,86.8083
864.9174,86.9621
865.8817,87.152
866.8459,87.3769
867.8101,87.6325
868.7744,87.9136
869.7386,88.2164
870.7028,88.5377
871.6671,88.8706
872.6313,89.201
873.5955,89.5074
874.5598,89.7681
875.5240,89.9709
876.4882,90.1202
877.4525,90.2353
878.4167,90.3397
879.3809,90.4489
880.3452,90.5639
881.3094,90.6743
882.2736,90.7691
883.2379,90.8445
884.2021,90.9053
885.1663,90.958
886.1306,91.0034
887.0948,91.0353
888.0590,91.0458
889.0233,91.0333
889.9875,91.0057
890.9517,90.9765
891.9160,90.9552
892.8802,90.9414
893.8444,90.9243
894.8087,90.8888
895.7729,90.8237
896.7371,90.7262
897.7014,90.6014
898.6656,90.4584
899.6298,90.3053
900.5941,90.147
901.5583,89.9845
902.5225,89.8166
903.4868,89.643
904.4510,89.4656
905.4152,89.2887
906.3795,89.1165
907.3437,88.9507
908.3079,88.7888
909.2722,88.6269
910.2364,88.4636
911.2006,88.3038
912.1649,88.1583
913.1291,88.0394
914.0933,87.9552
915.0576,87.9058
916.0218,87.8856
916.9860,87.8881
917.9503,87.9111
918.9145,87.9581
919.8787,88.0359
920.8430,88.1502
921.8072,88.3032
922.7714,88.4928
923.7357,88.7148
924.6999,88.9648
925.6641,89.2408
926.6284,89.5442
927.5926,89.8805
928.5568,90.2591
929.5211,90.6919
930.4853,91.191
931.4495,91.7649
932.4138,92.4164
933.3780,93.1402
934.3422,93.9228
935.3065,94.7417
936.2707,95.5677
937.2349,96.3669
938.1992,97.1064
939.1634,97.7597
940.1276,98.312
941.0919,98.7608
942.0561,99.1133
943.0203,99.3805
943.9846,99.5717
944.9488,99.7213
945.9130,99.8765
946.8773,99.966
947.8415,99.9945
948.8057,99.9699
949.7700,99.9014
950.7342,99.7979
951.6984,99.6667
952.6627,99.5127
953.6269,99.3379
954.5911,99.1411
955.5554,98.9177
956.5196,98.6616
957.4838,98.3669
958.4481,98.0306
959.4123,97.6523
960.3765,97.2336
961.3408,96.7764
962.3050,96.2824
963.2692,95.7552
964.2335,95.2018
965.1977,94.6336
966.1619,94.0643
967.1262,93.5072
968.0904,92.9714
969.0546,92.4612
970.0189,91.9775
970.9831,91.5202
971.9473,91.0897
972.9116,90.6869
973.8758,90.3124
974.8400,89.965
975.8043,89.64
976.7685,89.3291
977.7327,89.0204
978.6970,88.6998
979.6612,88.3537
980.6254,87.9717
981.5897,87.5489
982.5539,87.085
983.5181,86.584
984.4824,86.0515
985.4466,85.4958
986.4108,84.9282
987.3751,84.3653
988.3393,83.8284
989.3035,83.3417
990.2678,82.9271
991.2320,82.6005
992.1962,82.3677
993.1605,82.2241
994.1247,82.1552
995.0889,82.1403
996.0532,82.1556
997.0174,82.1784
997.9816,82.1894
998.9459,82.1734
999.9101,82.1194
1000.8743,82.0183
1001.8386,81.8609
1002.8028,81.6363
1003.7670,81.3304
1004.7313,80.9277
1005.6955,80.4126
1006.6597,79.7742
1007.6240,79.009
1008.5882,78.1219
1009.5524,77.1249
1010.5167,76.0328
1011.4809,74.8599
1012.4451,73.6178
1013.4094,72.3155
1014.3736,70.9604
1015.3378,69.5603
1016.3021,68.1261
1017.2663,66.6729
1018.2305,65.2203
1019.1948,63.7882
1020.1590,62.3888
1021.1232,61.0204
1022.0875,59.6685
1023.0517,58.3172
1024.0160,56.9664
1024.9802,55.6454
1025.9445,54.4092
1026.9087,53.3196
1027.8729,52.4186
1028.8372,51.7107
1029.8014,51.1641
1030.7656,50.7305
1031.7299,50.3708
1032.6941,50.0716
1033.6583,49.8453
1034.6226,49.7181
1035.5868,49.7129
1036.5510,49.8391
1037.5153,50.0883
1038.4795,50.4379
1039.4437,50.8569
1040.4080,51.3126
1041.3722,51.779
1042.3364,52.2426
1043.3007,52.705
1044.2649,53.1799
1045.2291,53.6846
1046.1934,54.2316
1047.1576,54.8251
1048.1218,55.4631
1049.0861,56.1433
1050.0503,56.8657
1051.0145,57.6311
1051.9788,58.4353
1052.9430,59.2671
1053.9072,60.1125
1054.8715,60.9647
1055.8357,61.8327
1056.7999,62.7368
1057.7642,63.6916
1058.7284,64.6821
1059.6926,65.6514
1060.6569,66.5127
1061.6211,67.1867
1062.5853,67.6449
1063.5496,67.9343
1064.5138,68.163
1065.4780,68.4507
1066.4423,68.8692
1067.4065,69.4069
1068.3707,69.9769
1069.3350,70.4636
1070.2992,70.7791
1071.2634,70.8981
1072.2277,70.8557
1073.1919,70.7172
1074.1561,70.5419
1075.1204,70.3624
1076.0846,70.1861
1077.0488,70.009
1078.0131,69.8294
1078.9773,69.652
1079.9415,69.4838
1080.9058,69.3275
1081.8700,69.1796
1082.8342,69.0333
1083.7985,68.8839
1084.7627,68.7335
1085.7269,68.593
1086.6912,68.4799
1087.6554,68.4129
1088.6196,68.4042
1089.5839,68.4522
1090.5481,68.5391
1091.5123,68.635
1092.4766,68.7074
1093.4408,68.7328
1094.4050,68.7026
1095.3693,68.6221
1096.3335,68.5043
1097.2977,68.362
1098.2620,68.2026
1099.2262,68.028
1100.1904,67.8363
1101.1547,67.6249
1102.1189,67.3929
1103.0831,67.1437
1104.0474,66.8872
1105.0116,66.6405
1105.9758,66.4258
1106.9401,66.2665
1107.9043,66.1834
1108.8685,66.1925
1109.8328,66.3067
1110.7970,66.5384
1111.7612,66.9009
1112.7255,67.4069
1113.6897,68.0646
1114.6539,68.8746
1115.6182,69.8305
1116.5824,70.9208
1117.5466,72.1332
1118.5109,73.4556
1119.4751,74.8752
1120.4393,76.3764
1121.4036,77.9396
1122.3678,79.5432
1123.3320,81.1656
1124.2963,82.7875
1125.2605,84.3911
1126.2247,85.959
1127.1890,87.4734
1128.1532,88.9168
1129.1174,90.2739
1130.0817,91.5341
1131.0459,92.6913
1132.0101,93.7433
1132.9744,94.69
1133.9386,95.5324
1134.9028,96.2722
1135.8671,96.9113
1136.8313,97.4522
1137.7955,97.8976
1138.7598,98.2508
1139.7240,98.5164
1140.6882,98.7005
1141.6525,98.81
1142.6167,98.8516
1143.5809,98.8314
1144.5452,98.7565
1145.5094,98.6372
1146.4736,98.489
1147.4379,98.3316
1148.4021,98.1851
1149.3663,98.066
1150.3306,97.9837
1151.2948,97.9409
1152.2590,97.9216
1153.2233,97.856
1154.1875,97.8198
1155.1517,97.8054
1156.1160,97.8018
1157.0802,97.795
1158.0444,97.77
1159.0087,97.7129
1159.9729,97.613
1160.9371,97.4625
1161.9014,97.2569
1162.8656,96.9954
1163.8298,96.6811
1164.7941,96.3204
1165.7583,95.9211
1166.7225,95.4899
1167.6868,95.0308
1168.6510,94.5456
1169.6152,94.036
1170.5795,93.5037
1171.5437,92.9511
1172.5079,92.3788
1173.4722,91.786
1174.4364,91.1709
1175.4006,90.5338
1176.3649,89.8788
1177.3291,89.2137
1178.2933,88.547
1179.2576,87.8852
1180.2218,87.231
1181.1860,86.5857
1182.1503,85.9513
1183.1145,85.3324
1184.0787,84.7362
1185.0430,84.169
1186.0072,83.6336
1186.9714,83.1285
1187.9357,82.6491
1188.8999,82.1904
1189.8641,81.7493
1190.8284,81.3246
1191.7926,80.9157
1192.7568,80.5212
1193.7211,80.138
1194.6853,79.7623
1195.6495,79.3905
1196.6138,79.0199
1197.5780,78.6487
1198.5422,78.2758
1199.5065,77.9367
1200.4707,77.5568
1201.4349,77.1789
1202.3992,76.8078
1203.3634,76.4492
1204.3276,76.1089
1205.2919,75.7918
1206.2561,75.5014
1207.2203,75.2395
1208.1846,75.0065
1209.1488,74.8021
1210.1130,74.6264
1211.0773,74.4812
1212.0415,74.3696
1213.0057,74.296
1213.9700,74.2637
1214.9342,74.2742
1215.8984,74.3262
1216.8627,74.4164
1217.8269,74.5405
1218.7911,74.6932
1219.7554,74.8691
1220.7196,75.0625
1221.6838,75.2679
1222.6481,75.4798
1223.6123,75.693
1224.5765,75.9023
1225.5408,76.1024
1226.5050,76.2882
1227.4692,76.4545
1228.4335,76.5968
1229.3977,76.7124
1230.3619,76.8026
1231.3262,76.8757
1232.2904,76.947
1233.2546,77.0357
1234.2189,77.1568
1235.1831,77.314
1236.1473,77.4972
1237.1116,77.6901
1238.0758,77.8818
1239.0400,78.0778
1240.0043,78.2993
1240.9685,78.5698
1241.9327,78.8971
1242.8970,79.261
1243.8612,79.6182
1244.8254,79.9212
1245.7897,80.1408
1246.7539,80.2776
1247.7181,80.3572
1248.6824,80.4137
1249.6466,80.4716
1250.6108,80.5381
1251.5751,80.6053
1252.5393,80.6591
1253.5035,80.688
1254.4678,80.6863
1255.4320,80.6541
1256.3962,80.5948
1257.3605,80.5129
1258.3247,80.4133
1259.2889,80.3006
1260.2532,80.1782
1261.2174,80.0483
1262.1816,79.9117
1263.1459,79.7692
1264.1101,79.6234
1265.0743,79.4787
1266.0386,79.3419
1267.0028,79.2202
1267.9670,79.1216
1268.9313,79.0532
1269.8955,79.0216
1270.8597,79.0322
1271.8240,79.0885
1272.7882,79.1915
1273.7524,79.3395
1274.7167,79.5284
1275.6809,79.7525
1276.6451,80.0056
1277.6094,80.2818
1278.5736,80.5763
1279.5378,80.885
1280.5021,81.204
1281.4663,81.5287
1282.4305,81.8533
1283.3948,82.1723
1284.3590,82.4819
1285.3232,82.7809
1286.2875,83.0707
1287.2517,83.3534
1288.2159,83.6296
1289.1802,83.897
1290.1444,84.1521
1291.1086,84.3918
1292.0729,84.6156
1293.0371,84.8256
1294.0013,85.0257
1294.9656,85.2188
1295.9298,85.4061
1296.8940,85.586
1297.8583,85.7549
1298.8225,85.9088
1299.7867,86.044
1300.7510,86.1583
1301.7152,86.2494
1302.6794,86.3171
1303.6437,86.362
1304.6079,86.3853
1305.5721,86.3882
1306.5364,86.3716
1307.5006,86.3359
1308.4648,86.2819
1309.4291,86.2109
1310.3933,86.1258
1311.3575,86.0298
1312.3218,85.9259
1313.2860,85.8158
1314.2502,85.6997
1315.2145,85.5782
1316.1787,85.4535
1317.1429,85.3307
1318.1072,85.2156
1319.0714,85.1119
1320.0356,85.0187
1320.9999,84.9315
1321.9641,84.8455
1322.9283,84.7596
1323.8926,84.6771
1324.8568,84.6043
1325.8210,84.5484
1326.7853,84.5158
1327.7495,84.5119
1328.7137,84.5423
1329.6780,84.6125
1330.6422,84.7253
1331.6064,84.8774
1332.5707,85.0571
1333.5349,85.2471
1334.4991,85.4319
1335.4634,85.606
1336.4276,85.7792
1337.3918,85.9755
1338.3561,86.221
1339.3203,86.5212
1340.2845,86.8472
1341.2488,87.1527
1342.2130,87.4039
1343.1772,87.593
1344.1415,87.729
1345.1057,87.8254
1346.0699,87.8933
1347.0342,87.9406
1347.9984,87.9718
1348.9626,87.9888
1349.9269,87.9911
1350.8911,87.9766
1351.8553,87.9445
1352.8196,87.8969
1353.7838,87.8382
1354.7480,87.7728
1355.7123,87.7016
1356.6765,87.6214
1357.6407,87.5279
1358.6050,87.4188
1359.5692,87.2971
1360.5334,87.1741
1361.4977,87.0683
1362.4619,86.9927
1363.4261,86.9396
1364.3904,86.8846
1365.3546,86.8083
1366.3188,86.7068
1367.2831,86.586
1368.2473,86.4532
1369.2115,86.3128
1370.1758,86.1655
1371.1400,86.0116
1372.1042,85.8563
1373.0685,85.7137
1374.0327,85.6033
1374.9969,85.5349
1375.9612,85.4988
1376.9254,85.4773
1377.8896,85.4624
1378.8539,85.4599
1379.8181,85.4798
1380.7823,85.5256
1381.7466,85.5921
1382.7108,85.6727
1383.6750,85.7707
1384.6393,85.9008
1385.6035,86.077
1386.5677,86.287
1387.5320,86.4699
1388.4962,86.5414
1389.4604,86.4538
1390.4247,86.224
1391.3889,85.9118
1392.3531,85.5948
1393.3174,85.3565
1394.2816,85.2678
1395.2458,85.3461
1396.2101,85.5264
1397.1743,85.6927
1398.1385,85.7512
1399.1028,85.6743
1400.0670,85.4888
1401.0313,85.2401
1401.9955,84.9664
1402.9597,84.6919
1403.9240,84.4316
1404.8882,84.197
1405.8524,83.9938
1406.8167,83.8185
1407.7809,83.6617
1408.7451,83.516
1409.7094,83.3774
1410.6736,83.2414
1411.6378,83.1014
1412.6021,82.9501
1413.5663,82.7852
1414.5305,82.6087
1415.4948,82.4209
1416.4590,82.217
1417.4232,81.9955
1418.3875,81.766
1419.3517,81.5343
1420.3159,81.2898
1421.2802,81.0276
1422.2444,80.7652
1423.2086,80.5288
1424.1729,80.3364
1425.1371,80.1933
1426.1013,80.0987
1427.0656,80.0578
1428.0298,80.0853
1428.9940,80.196
1429.9583,80.3853
1430.9225,80.6229
1431.8867,80.8756
1432.8510,81.1339
1433.8152,81.4131
1434.7794,81.7311
1435.7437,82.0759
1436.7079,82.3777
1437.6721,82.5338
1438.6364,82.4925
1439.6006,82.2867
1440.5648,81.9818
1441.5291,81.6237
1442.4933,81.2281
1443.4575,80.7929
1444.4218,80.3121
1445.3860,79.7846
1446.3502,79.2198
1447.3145,78.6404
1448.2787,78.0789
1449.2429,77.5643
1450.2072,77.1124
1451.1714,76.7289
1452.1356,76.4172
1453.0999,76.175
1454.0641,75.9862
1455.0283,75.8314
1455.9926,75.735
1456.9568,75.7787
1457.9210,75.9321
1458.8853,76.0191
1459.8495,75.9782
1460.8137,75.8936
1461.7780,75.8762
1462.7422,76.0233
1463.7064,76.4154
1464.6707,77.0704
1465.6349,77.8809
1466.5991,78.6772
1467.5634,79.3762
1468.5276,80.017
1469.4918,80.6942
1470.4561,81.5079
1471.4203,82.5437
1472.3845,83.8161
1473.3488,85.1663
1474.3130,86.3208
1475.2772,87.1391
1476.2415,87.6716
1477.2057,88.0248
1478.1699,88.2741
1479.1342,88.4597
1480.0984,88.6031
1481.0626,88.7164
1482.0269,88.8018
1482.9911,88.8529
1483.9553,88.8612
1484.9196,88.8213
1485.8838,88.7299
1486.8480,88.5904
1487.8123,88.4309
1488.7765,88.3098
1489.7407,88.2535
1490.7050,88.2058
1491.6692,88.1012
1492.6334,87.9317
1493.5977,87.7186
1494.5619,87.4741
1495.5261,87.1995
1496.4904,86.9113
1497.4546,86.6457
1498.4188,86.4142
1499.3831,86.1856
1500.3473,85.9442
1501.3115,85.7155
1502.2758,85.5313
1503.2400,85.3813
1504.2042,85.1729
1505.1685,84.7129
1506.1327,83.8247
1507.0969,82.6842
1508.0612,81.7397
1509.0254,81.064
1509.9896,80.4801
1510.9539,79.909
1511.9181,79.3651
1512.8823,78.9047
1513.8466,78.6139
1514.8108,78.5899
1515.7750,78.8909
1516.7393,79.4966
1517.7035,80.3504
1518.6677,81.4555
1519.6320,82.8997
1520.5962,84.7253
1521.5604,86.7587
1522.5247,88.6679
1523.4889,90.2464
1524.4531,91.5474
1525.4174,92.7385
1526.3816,93.9028
1527.3458,94.9839
1528.3101,95.883
1529.2743,96.5681
1530.2385,97.0938
1531.2028,97.5578
1532.1670,98.0413
1533.1312,98.551
1534.0955,99.0099
1535.0597,99.3453
1536.0239,99.5629
1536.9882,99.7055
1537.9524,99.7717
1538.9166,99.7036
1539.8809,99.5148
1540.8451,99.4275
1541.8093,99.5851
1542.7736,99.8263
1543.7378,100.006
1544.7020,100.107
1545.6663,100.139
1546.6305,100.152
1547.5947,100.119
1548.5590,100.062
1549.5232,99.9985
1550.4874,99.9299
1551.4517,99.8459
1552.4159,99.7432
1553.3801,99.6403
1554.3444,99.5698
1555.3086,99.5468
1556.2728,99.5439
1557.2371,99.5239
1558.2013,99.5364
1559.1655,99.6009
1560.1298,99.5053
1561.0940,99.1572
1562.0582,98.6926
1563.0225,98.2536
1563.9867,97.9031
1564.9509,97.641
1565.9152,97.4297
1566.8794,97.2149
1567.8436,96.9491
1568.8079,96.6204
1569.7721,96.257
1570.7363,95.8994
1571.7006,95.5729
1572.6648,95.2734
1573.6290,94.9566
1574.5933,94.5498
1575.5575,94.0154
1576.5217,93.4186
1577.4860,92.8619
1578.4502,92.3689
1579.4144,91.9055
1580.3787,91.441
1581.3429,90.9576
1582.3071,90.4498
1583.2714,89.9271
1584.2356,89.4098
1585.1998,88.9132
1586.1641,88.4406
1587.1283,87.9898
1588.0925,87.562
1589.0568,87.1622
1590.0210,86.7935
1590.9852,86.4532
1591.9495,86.1354
1592.9137,85.8376
1593.8779,85.5627
1594.8422,85.3146
1595.8064,85.0917
1596.7706,84.8863
1597.7349,84.6898
1598.6991,84.4988
1599.6633,84.3178
1600.6276,84.1564
1601.5918,84.0247
1602.5560,83.9271
1603.5203,83.8587
1604.4845,83.8086
1605.4487,83.7679
1606.4130,83.7391
1607.3772,83.7384
1608.3414,83.7876
1609.3057,83.8947
1610.2699,84.0437
1611.2341,84.2115
1612.1984,84.3946
1613.1626,84.6191
1614.1268,84.9398
1615.0911,85.4271
1616.0553,86.1044
1617.0195,86.8511
1617.9838,87.4666
1618.9480,87.8756
1619.9122,88.1601
1620.8765,88.4411
1621.8407,88.794
1622.8049,89.2219
1623.7692,89.6641
1624.7334,90.0464
1625.6976,90.3429
1626.6619,90.5805
1627.6261,90.7917
1628.5903,90.9796
1629.5546,91.1303
1630.5188,91.2435
1631.4830,91.3382
1632.4473,91.4268
1633.4115,91.4917
1634.3757,91.5073
1635.3400,91.5007
1636.3042,91.5295
1637.2684,91.5665
1638.2327,91.547
1639.1969,91.4714
1640.1611,91.3817
1641.1254,91.3129
1642.0896,91.2766
1643.0538,91.2552
1644.0181,91.1988
1644.9823,91.0506
1645.9465,90.8171
1646.9108,90.5961
1647.8750,90.476
1648.8392,90.4729
1649.8035,90.5705
1650.7677,90.722
1651.7319,90.8342
1652.6962,90.8383
1653.6604,90.7553
1654.6246,90.5618
1655.5889,90.2317
1656.5531,89.8573
1657.5173,89.5427
1658.4816,89.3263
1659.4458,89.1866
1660.4100,89.0762
1661.3743,88.9602
1662.3385,88.8331
1663.3027,88.7014
1664.2670,88.5675
1665.2312,88.4344
1666.1954,88.2998
1667.1597,88.1479
1668.1239,87.9635
1669.0881,87.765
1670.0524,87.601
1671.0166,87.4969
1671.9808,87.4381
1672.9451,87.4024
1673.9093,87.3686
1674.8735,87.304
1675.8378,87.1692
1676.8020,86.9469
1677.7662,86.667
1678.7305,86.3935
1679.6947,86.1829
1680.6589,86.0475
1681.6232,85.946
1682.5874,85.8148
1683.5516,85.6326
1684.5159,85.4157
1685.4801,85.1425
1686.4443,84.7935
1687.4086,84.4005
1688.3728,84.0125
1689.3370,83.6645
1690.3013,83.3726
1691.2655,83.1319
1692.2297,82.914
1693.1940,82.6694
1694.1582,82.3437
1695.1224,81.9137
1696.0867,81.4248
1697.0509,80.9869
1698.0151,80.6922
1698.9794,80.5157
1699.9436,80.3295
1700.9078,80.0331
1701.8721,79.6357
1702.8363,79.2199
1703.8005,78.8688
1704.7648,78.6292
1705.7290,78.505
1706.6932,78.4643
1707.6575,78.4582
1708.6217,78.4509
1709.5859,78.4351
1710.5502,78.4229
1711.5144,78.4268
1712.4786,78.4512
1713.4429,78.4985
1714.4071,78.5915
1715.3713,78.8046
1716.3356,79.237
1717.2998,79.856
1718.2640,80.435
1719.2283,80.8036
1720.1925,80.9959
1721.1567,81.1363
1722.1210,81.3216
1723.0852,81.5862
1724.0494,81.9117
1725.0137,82.2528
1725.9779,82.5688
1726.9421,82.8439
1727.9064,83.0878
1728.8706,83.3249
1729.8348,83.5839
1730.7991,83.8979
1731.7633,84.309
1732.7275,84.847
1733.6918,85.4535
1734.6560,85.965
1735.6202,86.2732
1736.5845,86.4305
1737.5487,86.5637
1738.5129,86.7695
1739.4772,87.0753
1740.4414,87.4453
1741.4056,87.8115
1742.3699,88.1231
1743.3341,88.3758
1744.2983,88.5986
1745.2626,88.824
1746.2268,89.0748
1747.1910,89.3743
1748.1553,89.7573
1749.1195,90.2444
1750.0837,90.787
1751.0480,91.2712
1752.0122,91.6146
1752.9764,91.826
1753.9407,91.9707
1754.9049,92.1126
1755.8691,92.2838
1756.8334,92.4832
1757.7976,92.6947
1758.7618,92.9077
1759.7261,93.1276
1760.6903,93.3651
1761.6545,93.6168
1762.6188,93.8587
1763.5830,94.0653
1764.5472,94.2323
1765.5115,94.3763
1766.4757,94.5156
1767.4399,94.6561
1768.4042,94.7907
1769.3684,94.9168
1770.3326,95.0567
1771.2969,95.259
1772.2611,95.5501
1773.2253,95.8836
1774.1896,96.1788
1775.1538,96.4033
1776.1180,96.5853
1777.0823,96.7701
1778.0465,96.9844
1779.0107,97.2275
1779.9750,97.4813
1780.9392,97.7262
1781.9034,97.9524
1782.8677,98.1581
1783.8319,98.34
1784.7961,98.4876
1785.7604,98.5921
1786.7246,98.6587
1787.6888,98.7068
1788.6531,98.7564
1789.6173,98.8141
1790.5815,98.8773
1791.5458,98.9468
1792.5100,99.0222
1793.4742,99.0853
1794.4385,99.1177
1795.4027,99.1296
1796.3669,99.149
1797.3312,99.1951
1798.2954,99.2686
1799.2596,99.3595
1800.2239,99.4561
1801.1881,99.5481
1802.1523,99.6257
1803.1166,99.6832
1804.0808,99.7321
1805.0450,99.7737
1806.0093,99.8056
1806.9735,99.8299
1807.9377,99.8491
1808.9020,99.87
1809.8662,99.903
1810.8304,99.9547
1811.7947,100.021
1812.7589,100.092
1813.7231,100.158
1814.6874,100.216
1815.6516,100.268
1816.6158,100.311
1817.5801,100.343
1818.5443,100.365
1819.5085,100.378
1820.4728,100.39
1821.4370,100.405
1822.4012,100.424
1823.3655,100.445
1824.3297,100.457
1825.2939,100.455
1826.2582,100.436
1827.2224,100.41
1828.1866,100.396
1829.1509,100.415
1830.1151,100.47
1831.0793,100.534
1832.0436,100.577
1833.0078,100.59
1833.9720,100.584
1834.9363,100.574
1835.9005,100.57
1836.8647,100.572
1837.8290,100.579
1838.7932,100.592
1839.7574,100.617
1840.7217,100.656
1841.6859,100.699
1842.6501,100.729
1843.6144,100.741
1844.5786,100.74
1845.5428,100.73
1846.5071,100.715
1847.4713,100.703
1848.4355,100.706
1849.3998,100.729
1850.3640,100.762
1851.3282,100.792
1852.2925,100.81
1853.2567,100.816
1854.2209,100.813
1855.1852,100.807
1856.1494,100.8
1857.1136,100.793
1858.0779,100.79
1859.0421,100.791
1860.0063,100.796
1860.9706,100.801
1861.9348,100.795
1862.8990,100.772
1863.8633,100.731
1864.8275,100.677
1865.7917,100.619
1866.7560,100.575
1867.7202,100.573
1868.6844,100.63
1869.6487,100.721
1870.6129,100.802
1871.5771,100.846
1872.5414,100.861
1873.5056,100.864
1874.4698,100.867
1875.4341,100.871
1876.3983,100.873
1877.3625,100.873
1878.3268,100.87
1879.2910,100.865
1880.2552,100.861
1881.2195,100.855
1882.1837,100.847
1883.1479,100.835
1884.1122,100.822
1885.0764,100.809
1886.0406,100.801
1887.0049,100.798
1887.9691,100.8
1888.9333,100.804
1889.8976,100.804
1890.8618,100.798
1891.8260,100.782
1892.7903,100.762
1893.7545,100.746
1894.7188,100.742
1895.6830,100.751
1896.6472,100.767
1897.6115,100.784
1898.5757,100.793
1899.5399,100.795
1900.5042,100.79
1901.4684,100.783
1902.4326,100.774
1903.3969,100.763
1904.3611,100.745
1905.3253,100.718
1906.2896,100.686
1907.2538,100.657
1908.2180,100.639
1909.1823,100.639
1910.1465,100.654
1911.1107,100.674
1912.0750,100.688
1913.0392,100.695
1914.0034,100.698
1914.9677,100.701
1915.9319,100.704
1916.8961,100.702
1917.8604,100.69
1918.8246,100.661
1919.7888,100.618
1920.7531,100.573
1921.7173,100.541
1922.6815,100.533
1923.6458,100.55
1924.6100,100.578
1925.5742,100.603
1926.5385,100.617
1927.5027,100.62
1928.4669,100.616
1929.4312,100.61
1930.3954,100.605
1931.3596,100.602
1932.3239,100.6
1933.2881,100.6
1934.2523,100.603
1935.2166,100.605
1936.1808,100.605
1937.1450,100.598
1938.1093,100.585
1939.0735,100.563
1940.0377,100.537
1941.0020,100.511
1941.9662,100.492
1942.9304,100.486
1943.8947,100.492
1944.8589,100.507
1945.8231,100.525
1946.7874,100.545
1947.7516,100.567
1948.7158,100.586
1949.6801,100.599
1950.6443,100.605
1951.6085,100.603
1952.5728,100.598
1953.5370,100.594
1954.5012,100.596
1955.4655,100.602
1956.4297,100.612
1957.3939,100.623
1958.3582,100.631
1959.3224,100.637
1960.2866,100.639
1961.2509,100.637
1962.2151,100.628
1963.1793,100.614
1964.1436,100.597
1965.1078,100.582
1966.0720,100.577
1967.0363,100.585
1968.0005,100.606
1968.9647,100.633
1969.9290,100.658
1970.8932,100.675
1971.8574,100.684
1972.8217,100.686
1973.7859,100.685
1974.7501,100.684
1975.7144,100.684
1976.6786,100.686
1977.6428,100.689
1978.6071,100.692
1979.5713,100.694
1980.5355,100.696
1981.4998,100.696
1982.4640,100.694
1983.4282,100.69
1984.3925,100.682
1985.3567,100.672
1986.3209,100.659
1987.2852,100.645
1988.2494,100.632
1989.2136,100.622
1990.1779,100.617
1991.1421,100.619
1992.1063,100.629
1993.0706,100.643
1994.0348,100.657
1994.9990,100.665
1995.9633,100.668
1996.9275,100.667
1997.8917,100.665
1998.8560,100.664
1999.8202,100.666
2000.7844,100.668
2001.7487,100.67
2002.7129,100.669
2003.6771,100.664
2004.6414,100.655
2005.6056,100.645
2006.5698,100.635
2007.5341,100.628
2008.4983,100.624
2009.4625,100.622
2010.4268,100.621
2011.3910,100.617
2012.3552,100.608
2013.3195,100.595
2014.2837,100.578
2015.2479,100.561
2016.2122,100.549
2017.1764,100.546
2018.1406,100.55
2019.1049,100.559
2020.0691,100.567
2021.0333,100.573
2021.9976,100.575
2022.9618,100.575
2023.9260,100.574
2024.8903,100.572
2025.8545,100.568
2026.8187,100.564
2027.7830,100.558
2028.7472,100.553
2029.7114,100.548
2030.6757,100.544
2031.6399,100.54
2032.6041,100.535
2033.5684,100.531
2034.5326,100.526
2035.4968,100.52
2036.4611,100.512
2037.4253,100.502
2038.3895,100.489
2039.3538,100.477
2040.3180,100.468
2041.2822,100.463
2042.2465,100.463
2043.2107,100.465
2044.1749,100.469
2045.1392,100.471
2046.1034,100.47
2047.0676,100.466
2048.0320,100.46
2048.9961,100.451
2049.9604,100.443
2050.9246,100.436
2051.8889,100.43
2052.8530,100.426
2053.8174,100.423
2054.7815,100.418
2055.7458,100.412
2056.7100,100.405
2057.6743,100.397
2058.6384,100.389
2059.6028,100.381
2060.5669,100.371
2061.5313,100.359
2062.4954,100.348
2063.4597,100.341
2064.4238,100.34
2065.3882,100.346
2066.3523,100.357
2067.3167,100.369
2068.2808,100.379
2069.2451,100.385
2070.2092,100.388
2071.1736,100.388
2072.1377,100.388
2073.1021,100.389
2074.0662,100.389
2075.0305,100.39
2075.9946,100.389
2076.9590,100.387
2077.9231,100.385
2078.8875,100.382
2079.8516,100.379
2080.8159,100.377
2081.7800,100.377
2082.7444,100.378
2083.7085,100.381
2084.6729,100.383
2085.6370,100.385
2086.6013,100.387
2087.5654,100.388
2088.5298,100.387
2089.4939,100.386
2090.4583,100.384
2091.4224,100.382
2092.3867,100.38
2093.3508,100.38
2094.3152,100.381
2095.2793,100.384
2096.2437,100.386
2097.2078,100.387
2098.1721,100.387
2099.1362,100.384
2100.1006,100.379
2101.0647,100.375
2102.0291,100.372
2102.9932,100.371
2103.9575,100.371
2104.9216,100.372
2105.8860,100.373
2106.8501,100.373
2107.8145,100.37
2108.7786,100.365
2109.7429,100.359
2110.7070,100.352
2111.6714,100.346
2112.6355,100.343
2113.5999,100.343
2114.5640,100.347
2115.5283,100.353
2116.4924,100.359
2117.4568,100.363
2118.4209,100.364
2119.3853,100.361
2120.3494,100.356
2121.3137,100.35
2122.2778,100.345
2123.2422,100.34
2124.2063,100.337
2125.1707,100.335
2126.1348,100.334
2127.0991,100.337
2128.0632,100.343
2129.0276,100.351
2129.9917,100.359
2130.9561,100.365
2131.9202,100.367
2132.8845,100.366
2133.8486,100.361
2134.8130,100.356
2135.7771,100.352
2136.7415,100.353
2137.7056,100.356
2138.6699,100.363
2139.6340,100.369
2140.5984,100.375
2141.5625,100.38
2142.5269,100.384
2143.4910,100.387
2144.4553,100.391
2145.4194,100.396
2146.3838,100.402
2147.3479,100.409
2148.3123,100.414
2149.2764,100.419
2150.2407,100.423
2151.2048,100.424
2152.1692,100.424
2153.1333,100.423
2154.0977,100.423
2155.0618,100.424
2156.0261,100.429
2156.9902,100.436
2157.9546,100.444
2158.9187,100.451
2159.8831,100.456
2160.8472,100.459
2161.8115,100.459
2162.7756,100.461
2163.7400,100.463
2164.7041,100.466
2165.6685,100.469
2166.6326,100.472
2167.5969,100.472
2168.5610,100.47
2169.5254,100.469
2170.4895,100.468
2171.4539,100.47
2172.4180,100.474
2173.3823,100.48
2174.3464,100.485
2175.3108,100.49
2176.2749,100.494
2177.2393,100.498
2178.2034,100.501
2179.1677,100.504
2180.1318,100.505
2181.0962,100.504
2182.0603,100.501
2183.0247,100.497
2183.9888,100.493
2184.9531,100.491
2185.9172,100.49
2186.8816,100.491
2187.8457,100.493
2188.8101,100.495
2189.7742,100.498
2190.7385,100.501
2191.7026,100.506
2192.6670,100.511
2193.6311,100.516
2194.5955,100.52
2195.5596,100.521
2196.5239,100.52
2197.4880,100.517
2198.4524,100.513
2199.4165,100.507
2200.3809,100.502
2201.3450,100.498
2202.3093,100.495
2203.2734,100.495
2204.2378,100.496
2205.2019,100.498
2206.1663,100.499
2207.1304,100.5
2208.0947,100.502
2209.0588,100.505
2210.0232,100.508
2210.9873,100.509
2211.9517,100.508
2212.9158,100.502
2213.8801,100.494
2214.8442,100.486
2215.8086,100.478
2216.7727,100.472
2217.7371,100.467
2218.7012,100.462
2219.6655,100.457
2220.6296,100.453
2221.5940,100.45
2222.5581,100.451
2223.5225,100.453
2224.4866,100.456
2225.4509,100.457
2226.4150,100.453
2227.3794,100.444
2228.3435,100.432
2229.3079,100.419
2230.2720,100.405
2231.2363,100.393
2232.2004,100.384
2233.1648,100.378
2234.1289,100.374
2235.0933,100.372
2236.0574,100.371
2237.0217,100.369
2237.9858,100.365
2238.9502,100.36
2239.9143,100.354
2240.8787,100.347
2241.8428,100.339
2242.8071,100.331
2243.7712,100.321
2244.7356,100.31
2245.6997,100.298
2246.6641,100.285
2247.6282,100.273
2248.5925,100.263
2249.5566,100.256
2250.5210,100.248
2251.4851,100.239
2252.4495,100.228
2253.4136,100.213
2254.3779,100.197
2255.3420,100.18
2256.3064,100.164
2257.2705,100.151
2258.2349,100.139
2259.1990,100.128
2260.1633,100.117
2261.1274,100.105
2262.0918,100.094
2263.0559,100.085
2264.0203,100.079
2264.9844,100.075
2265.9487,100.073
2266.9128,100.07
2267.8772,100.065
2268.8413,100.056
2269.8057,100.045
2270.7698,100.035
2271.7341,100.027
2272.6982,100.021
2273.6626,100.018
2274.6267,100.015
2275.5911,100.014
2276.5552,100.015
2277.5195,100.018
2278.4836,100.023
2279.4480,100.03
2280.4121,100.035
2281.3765,100.038
2282.3406,100.034
2283.3049,100.025
2284.2690,100.008
2285.2334,99.9844
2286.1975,99.9557
2287.1619,99.9235
2288.1260,99.8901
2289.0903,99.8567
2290.0544,99.8242
2291.0188,99.7927
2291.9829,99.7631
2292.9473,99.7372
2293.9114,99.7173
2294.8757,99.7052
2295.8398,99.7008
2296.8042,99.7027
2297.7683,99.7095
2298.7327,99.7209
2299.6968,99.7381
2300.6611,99.7628
2301.6252,99.7945
2302.5896,99.8298
2303.5537,99.8619
2304.5181,99.8837
2305.4822,99.8911
2306.4465,99.8864
2307.4106,99.8783
2308.3750,99.8796
2309.3391,99.9011
2310.3035,99.9459
2311.2676,100.008
2312.2319,100.075
2313.1960,100.134
2314.1604,100.18
2315.1245,100.217
2316.0889,100.252
2317.0530,100.295
2318.0173,100.346
2318.9814,100.395
2319.9458,100.424
2320.9099,100.41
2321.8743,100.338
2322.8384,100.206
2323.8027,100.035
2324.7668,99.8612
2325.7312,99.728
2326.6953,99.6652
2327.6597,99.6771
2328.6238,99.7377
2329.5881,99.7993
2330.5522,99.8128
2331.5166,99.7527
2332.4807,99.6288
2333.4451,99.4783
2334.4092,99.3433
2335.3735,99.2498
2336.3376,99.1976
2337.3020,99.165
2338.2661,99.1222
2339.2305,99.05
2340.1946,98.9574
2341.1589,98.8913
2342.1230,98.9271
2343.0874,99.1106
2344.0515,99.3735
2345.0159,99.5486
2345.9800,99.5264
2346.9443,99.3492
2347.9084,99.1466
2348.8728,99.0308
2349.8369,99.0411
2350.8013,99.1374
2351.7654,99.227
2352.7297,99.2223
2353.6938,99.1043
2354.6582,98.929
2355.6223,98.7581
2356.5867,98.6055
2357.5508,98.4627
2358.5151,98.339
2359.4792,98.2589
2360.4436,98.2424
2361.4077,98.2769
2362.3721,98.3494
2363.3362,98.4734
2364.3005,98.6644
2365.2646,98.9167
2366.2290,99.2021
2367.1931,99.4867
2368.1575,99.7466
2369.1216,99.9714
2370.0859,100.16
2371.0500,100.314
2372.0144,100.436
2372.9785,100.527
2373.9429,100.58
2374.9070,100.591
2375.8713,100.553
2376.8354,100.471
2377.7998,100.355
2378.7639,100.222
2379.7283,100.091
2380.6924,99.9782
2381.6567,99.8925
2382.6208,99.837
2383.5852,99.8091
2384.5493,99.803
2385.5137,99.8111
2386.4778,99.8262
2387.4421,99.8421
2388.4063,99.8543
2389.3706,99.861
2390.3347,99.8627
2391.2991,99.8622
2392.2632,99.8629
2393.2275,99.8678
2394.1917,99.8774
2395.1560,99.8906
2396.1201,99.9049
2397.0845,99.9182
2398.0486,99.9293
2399.0129,99.9383
2399.9771,99.9457
2400.9414,99.9516
2401.9055,99.9558
2402.8699,99.9583
2403.8340,99.9598
2404.7983,99.9613
2405.7625,99.9642
2406.7268,99.9688
2407.6909,99.9746
2408.6553,99.9807
2409.6194,99.986
2410.5837,99.9907
2411.5479,99.9951
2412.5122,100
2413.4763,100.006
2414.4407,100.013
2415.4048,100.02
2416.3691,100.027
2417.3333,100.032
2418.2976,100.038
2419.2617,100.044
2420.2261,100.05
2421.1902,100.056
2422.1545,100.062
2423.1187,100.066
2424.0830,100.068
2425.0471,100.07
2426.0115,100.073
2426.9756,100.079
2427.9399,100.087
2428.9041,100.099
2429.8684,100.11
2430.8325,100.119
2431.7969,100.125
2432.7610,100.127
2433.7253,100.127
2434.6895,100.126
2435.6538,100.127
2436.6179,100.129
2437.5823,100.133
2438.5464,100.139
2439.5107,100.147
2440.4749,100.156
2441.4392,100.165
2442.4033,100.175
2443.3677,100.183
2444.3318,100.191
2445.2961,100.197
2446.2603,100.201
2447.2246,100.203
2448.1887,100.203
2449.1531,100.201
2450.1172,100.199
2451.0815,100.197
2452.0457,100.198
2453.0100,100.202
2453.9741,100.208
2454.9385,100.213
2455.9026,100.216
2456.8669,100.217
2457.8311,100.217
2458.7954,100.218
2459.7595,100.22
2460.7239,100.224
2461.6880,100.229
2462.6523,100.234
2463.6165,100.238
2464.5808,100.24
2465.5449,100.241
2466.5093,100.24
2467.4734,100.239
2468.4377,100.239
2469.4019,100.24
2470.3662,100.243
2471.3303,100.247
2472.2947,100.251
2473.2588,100.254
2474.2231,100.256
2475.1873,100.256
2476.1516,100.255
2477.1157,100.253
2478.0801,100.252
2479.0442,100.251
2480.0085,100.252
2480.9727,100.255
2481.9370,100.262
2482.9011,100.269
2483.8655,100.276
2484.8296,100.28
2485.7939,100.281
2486.7581,100.28
2487.7224,100.28
2488.6865,100.282
2489.6509,100.286
2490.6150,100.292
2491.5793,100.297
2492.5435,100.298
2493.5078,100.297
2494.4719,100.296
2495.4363,100.297
2496.4004,100.303
2497.3647,100.313
2498.3289,100.326
2499.2932,100.338
2500.2573,100.345
2501.2217,100.345
2502.1858,100.341
2503.1501,100.336
2504.1143,100.334
2505.0786,100.337
2506.0427,100.344
2507.0071,100.353
2507.9712,100.36
2508.9355,100.363
2509.8997,100.361
2510.8640,100.358
2511.8281,100.355
2512.7925,100.356
2513.7566,100.362
2514.7209,100.373
2515.6851,100.387
2516.6494,100.403
2517.6135,100.416
2518.5779,100.425
2519.5420,100.428
2520.5063,100.427
2521.4705,100.426
2522.4348,100.427
2523.3989,100.432
2524.3633,100.439
2525.3274,100.447
2526.2917,100.453
2527.2559,100.456
2528.2202,100.457
2529.1843,100.459
2530.1487,100.461
2531.1128,100.464
2532.0771,100.468
2533.0413,100.471
2534.0056,100.473
2534.9697,100.474
2535.9341,100.476
2536.8982,100.478
2537.8625,100.483
2538.8267,100.488
2539.7910,100.494
2540.7551,100.501
2541.7195,100.506
2542.6836,100.512
2543.6479,100.519
2544.6121,100.527
2545.5764,100.537
2546.5405,100.549
2547.5049,100.561
2548.4690,100.571
2549.4333,100.58
2550.3975,100.586
2551.3618,100.589
2552.3259,100.59
2553.2903,100.592
2554.2544,100.596
2555.2188,100.604
2556.1829,100.615
2557.1472,100.628
2558.1113,100.641
2559.0757,100.65
2560.0398,100.657
2561.0042,100.66
2561.9683,100.661
2562.9326,100.66
2563.8967,100.659
2564.8611,100.66
2565.8252,100.664
2566.7896,100.672
2567.7537,100.682
2568.7180,100.691
2569.6821,100.698
2570.6465,100.702
2571.6106,100.704
2572.5750,100.706
2573.5391,100.71
2574.5034,100.715
2575.4675,100.722
2576.4319,100.728
2577.3960,100.734
2578.3604,100.739
2579.3245,100.746
2580.2888,100.754
2581.2529,100.763
2582.2173,100.77
2583.1814,100.774
2584.1458,100.774
2585.1099,100.771
2586.0742,100.768
2587.0383,100.765
2588.0027,100.763
2588.9668,100.764
2589.9312,100.766
2590.8953,100.769
2591.8596,100.772
2592.8237,100.776
2593.7881,100.778
2594.7522,100.78
2595.7166,100.78
2596.6807,100.779
2597.6450,100.778
2598.6091,100.776
2599.5735,100.776
2600.5376,100.778
2601.5020,100.783
2602.4661,100.789
2603.4304,100.795
2604.3945,100.8
2605.3589,100.804
2606.3230,100.808
2607.2874,100.811
2608.2515,100.815
2609.2158,100.82
2610.1799,100.825
2611.1443,100.829
2612.1084,100.833
2613.0728,100.836
2614.0369,100.84
2615.0012,100.843
2615.9653,100.845
2616.9297,100.846
2617.8938,100.845
2618.8582,100.843
2619.8223,100.843
2620.7866,100.844
2621.7507,100.846
2622.7151,100.847
2623.6792,100.847
2624.6436,100.845
2625.6077,100.845
2626.5720,100.846
2627.5361,100.851
2628.5005,100.858
2629.4646,100.867
2630.4290,100.875
2631.3931,100.882
2632.3574,100.886
2633.3215,100.888
2634.2859,100.889
2635.2500,100.891
2636.2144,100.892
2637.1785,100.895
2638.1428,100.9
2639.1069,100.906
2640.0713,100.914
2641.0354,100.923
2641.9998,100.933
2642.9639,100.942
2643.9282,100.949
2644.8923,100.954
2645.8567,100.958
2646.8208,100.961
2647.7852,100.964
2648.7493,100.968
2649.7136,100.972
2650.6777,100.974
2651.6421,100.976
2652.6062,100.98
2653.5706,100.987
2654.5347,100.998
2655.4990,101.013
2656.4631,101.028
2657.4275,101.041
2658.3916,101.05
2659.3560,101.055
2660.3201,101.058
2661.2844,101.061
2662.2485,101.067
2663.2129,101.077
2664.1770,101.089
2665.1414,101.104
2666.1055,101.12
2667.0698,101.135
2668.0339,101.148
2668.9983,101.161
2669.9624,101.172
2670.9268,101.184
2671.8909,101.197
2672.8552,101.212
2673.8193,101.228
2674.7837,101.246
2675.7478,101.263
2676.7122,101.278
2677.6763,101.288
2678.6406,101.292
2679.6047,101.291
2680.5691,101.287
2681.5332,101.284
2682.4976,101.283
2683.4617,101.286
2684.4260,101.292
2685.3901,101.301
2686.3545,101.309
2687.3186,101.315
2688.2830,101.319
2689.2471,101.321
2690.2114,101.322
2691.1755,101.324
2692.1399,101.326
2693.1040,101.33
2694.0684,101.335
2695.0325,101.341
2695.9968,101.348
2696.9609,101.355
2697.9253,101.361
2698.8894,101.367
2699.8538,101.371
2700.8179,101.373
2701.7822,101.372
2702.7463,101.368
2703.7107,101.362
2704.6748,101.353
2705.6392,101.34
2706.6033,101.326
2707.5676,101.312
2708.5317,101.299
2709.4961,101.29
2710.4602,101.285
2711.4246,101.282
2712.3887,101.28
2713.3530,101.275
2714.3171,101.266
2715.2815,101.252
2716.2456,101.237
2717.2100,101.222
2718.1741,101.21
2719.1384,101.203
2720.1025,101.201
2721.0669,101.202
2722.0310,101.203
2722.9954,101.2
2723.9595,101.191
2724.9238,101.178
2725.8879,101.162
2726.8523,101.147
2727.8164,101.137
2728.7808,101.131
2729.7449,101.128
2730.7092,101.125
2731.6733,101.121
2732.6377,101.115
2733.6018,101.107
2734.5662,101.098
2735.5303,101.087
2736.4946,101.075
2737.4587,101.061
2738.4231,101.046
2739.3872,101.035
2740.3516,101.027
2741.3157,101.025
2742.2800,101.028
2743.2441,101.034
2744.2085,101.041
2745.1726,101.048
2746.1370,101.053
2747.1011,101.053
2748.0654,101.048
2749.0295,101.037
2749.9939,101.022
2750.9580,101.008
2751.9224,100.999
2752.8865,100.995
2753.8508,100.995
2754.8149,100.995
2755.7793,100.99
2756.7434,100.979
2757.7078,100.96
2758.6719,100.937
2759.6362,100.915
2760.6003,100.896
2761.5647,100.883
2762.5288,100.878
2763.4932,100.876
2764.4573,100.876
2765.4216,100.873
2766.3857,100.866
2767.3501,100.856
2768.3142,100.844
2769.2786,100.833
2770.2427,100.824
2771.2070,100.814
2772.1711,100.8
2773.1355,100.778
2774.0996,100.748
2775.0640,100.713
2776.0281,100.679
2776.9924,100.649
2777.9565,100.624
2778.9209,100.6
2779.8850,100.573
2780.8494,100.54
2781.8135,100.499
2782.7778,100.456
2783.7419,100.414
2784.7063,100.379
2785.6704,100.352
2786.6348,100.329
2787.5989,100.305
2788.5632,100.274
2789.5273,100.234
2790.4917,100.187
2791.4558,100.138
2792.4202,100.093
2793.3843,100.055
2794.3486,100.022
2795.3127,99.9879
2796.2771,99.9483
2797.2412,99.8993
2798.2056,99.8415
2799.1697,99.7781
2800.1340,99.7135
2801.0981,99.6506
2802.0625,99.5897
2803.0266,99.5264
2803.9910,99.4648
2804.9551,99.4035
2805.9194,99.3403
2806.8835,99.2723
2807.8479,99.1963
2808.8120,99.1106
2809.7764,99.0158
2810.7405,98.9148
2811.7048,98.8117
2812.6689,98.7089
2813.6333,98.6066
2814.5974,98.5021
2815.5618,98.3919
2816.5259,98.2728
2817.4902,98.1431
2818.4543,98.0025
2819.4187,97.8511
2820.3828,97.6888
2821.3472,97.5152
2822.3113,97.3302
2823.2756,97.1342
2824.2397,96.9279
2825.2041,96.712
2826.1682,96.4863
2827.1326,96.2501
2828.0967,96.0015
2829.0610,95.7392
2830.0251,95.4622
2830.9895,95.171
2831.9536,94.8677
2832.9180,94.5557
2833.8821,94.2391
2834.8464,93.9212
2835.8105,93.6039
2836.7749,93.2887
2837.7390,92.9766
2838.7034,92.6701
2839.6675,92.3723
2840.6318,92.0857
2841.5959,91.8094
2842.5603,91.5391
2843.5244,91.2682
2844.4888,90.9922
2845.4529,90.7125
2846.4172,90.4387
2847.3813,90.1848
2848.3457,89.9642
2849.3098,89.7823
2850.2742,89.6346
2851.2383,89.5081
2852.2026,89.3873
2853.1667,89.2604
2854.1311,89.1222
2855.0952,88.9735
2856.0596,88.8176
2857.0237,88.6568
2857.9880,88.4906
2858.9521,88.3165
2859.9165,88.1318
2860.8806,87.935
2861.8450,87.727
2862.8091,87.5107
2863.7734,87.2903
2864.7375,87.0709
2865.7019,86.8573
2866.6660,86.6533
2867.6304,86.4604
2868.5945,86.2775
2869.5588,86.1018
2870.5229,85.9305
2871.4873,85.762
2872.4514,85.5963
2873.4158,85.4344
2874.3799,85.276
2875.3442,85.1191
2876.3083,84.9603
2877.2727,84.7964
2878.2368,84.6267
2879.2012,84.4553
2880.1653,84.2904
2881.1296,84.1428
2882.0938,84.0224
2883.0581,83.9355
2884.0222,83.8829
2884.9866,83.8604
2885.9507,83.8598
2886.9150,83.8702
2887.8792,83.8802
2888.8435,83.8804
2889.8076,83.8672
2890.7720,83.8447
2891.7361,83.8226
2892.7004,83.8089
2893.6646,83.7999
2894.6289,83.7763
2895.5930,83.7098
2896.5574,83.579
2897.5215,83.3864
2898.4858,83.1645
2899.4500,82.9647
2900.4143,82.8337
2901.3784,82.7908
2902.3428,82.82
2903.3069,82.8801
2904.2712,82.9261
2905.2354,82.9279
2906.1997,82.8778
2907.1638,82.7841
2908.1282,82.6613
2909.0923,82.5212
2910.0566,82.3715
2911.0208,82.2176
2911.9851,82.0643
2912.9492,81.9162
2913.9136,81.7756
2914.8777,81.6419
2915.8420,81.5127
2916.8062,81.3855
2917.7705,81.2592
2918.7346,81.1339
2919.6990,81.0108
2920.6631,80.8909
2921.6274,80.7754
2922.5916,80.6646
2923.5559,80.558
2924.5200,80.4543
2925.4844,80.3522
2926.4485,80.2517
2927.4128,80.1555
2928.3770,80.068
2929.3413,79.9939
2930.3054,79.9371
2931.2698,79.8997
2932.2339,79.883
2933.1982,79.8886
2934.1624,79.9186
2935.1267,79.9752
2936.0908,80.0591
2937.0552,80.1689
2938.0193,80.3018
2938.9836,80.4545
2939.9478,80.6255
2940.9121,80.8151
2941.8762,81.0253
2942.8406,81.2571
2943.8047,81.5075
2944.7690,81.7687
2945.7332,82.0286
2946.6975,82.2749
2947.6616,82.4994
2948.6260,82.7004
2949.5901,82.8817
2950.5544,83.0488
2951.5186,83.2055
2952.4829,83.3521
2953.4470,83.4866
2954.4114,83.608
2955.3755,83.7189
2956.3398,83.8253
2957.3040,83.9343
2958.2683,84.0506
2959.2324,84.1737
2960.1968,84.2979
2961.1609,84.4147
2962.1252,84.5159
2963.0894,84.5968
2964.0537,84.6578
2965.0178,84.7037
2965.9822,84.742
2966.9463,84.7817
2967.9106,84.8318
2968.8748,84.9015
2969.8391,84.9994
2970.8032,85.1319
2971.7676,85.3008
2972.7317,85.5025
2973.6960,85.7281
2974.6602,85.9668
2975.6245,86.2089
2976.5886,86.4488
2977.5530,86.6847
2978.5171,86.9178
2979.4814,87.1491
2980.4456,87.376
2981.4099,87.5895
2982.3740,87.7749
2983.3384,87.9172
2984.3025,88.0119
2985.2668,88.0761
2986.2310,88.1513
2987.1953,88.2924
2988.1594,88.5454
2989.1238,88.923
2990.0879,89.3942
2991.0522,89.8954
2992.0164,90.3579
2992.9807,90.7366
2993.9448,91.0256
2994.9092,91.2527
2995.8733,91.4585
2996.8376,91.6752
2997.8018,91.9153
2998.7661,92.1749
2999.7302,92.4436
3000.6946,92.7138
3001.6587,92.984
3002.6230,93.2577
3003.5872,93.5386
3004.5515,93.8284
3005.5156,94.126
3006.4800,94.4271
3007.4441,94.7255
3008.4084,95.015
3009.3726,95.2918
3010.3369,95.5566
3011.3010,95.8141
3012.2654,96.0703
3013.2295,96.328
3014.1938,96.5849
3015.1580,96.8344
3016.1223,97.0701
3017.0864,97.2889
3018.0508,97.4923
3019.0149,97.6842
3019.9792,97.8677
3020.9434,98.0442
3021.9077,98.2131
3022.8718,98.3744
3023.8362,98.5286
3024.8003,98.6768
3025.7646,98.8189
3026.7288,98.9533
3027.6931,99.0784
3028.6572,99.1939
3029.6216,99.3018
3030.5857,99.4049
3031.5500,99.5053
3032.5142,99.6023
3033.4785,99.694
3034.4426,99.7784
3035.4070,99.8555
3036.3711,99.9271
3037.3354,99.9949
3038.2996,100.059
3039.2639,100.116
3040.2280,100.164
3041.1924,100.2
3042.1565,100.223
3043.1208,100.209
3044.0850,100.181
3045.0493,100.146
3046.0134,100.11
3046.9778,100.074
3047.9419,100.041
3048.9063,100.008
3049.8704,99.97
3050.8347,99.9241
3051.7988,99.8683
3052.7632,99.805
3053.7273,99.7395
3054.6917,99.6773
3055.6558,99.6213
3056.6201,99.5709
3057.5842,99.5228
3058.5486,99.4724
3059.5127,99.4159
3060.4771,99.3511
3061.4412,99.2781
3062.4055,99.1996
3063.3696,99.1209
3064.3340,99.0484
3065.2981,98.9866
3066.2625,98.9356
3067.2266,98.8914
3068.1909,98.8478
3069.1550,98.7998
3070.1194,98.7456
3071.0835,98.6864
3072.0479,98.6239
3073.0120,98.5587
3073.9763,98.4897
3074.9404,98.4158
3075.9048,98.3379
3076.8689,98.2586
3077.8333,98.1817
3078.7974,98.1096
3079.7617,98.0426
3080.7258,97.9791
3081.6902,97.9171
3082.6543,97.8554
3083.6187,97.7934
3084.5828,97.7311
3085.5471,97.6681
3086.5112,97.6036
3087.4756,97.5372
3088.4397,97.4684
3089.4041,97.3971
3090.3682,97.323
3091.3325,97.2454
3092.2966,97.1637
3093.2610,97.0772
3094.2251,96.9858
3095.1895,96.8899
3096.1536,96.791
3097.1179,96.6917
3098.0820,96.5959
3099.0464,96.5071
3100.0105,96.4271
3100.9749,96.3548
3101.9390,96.2857
3102.9033,96.2146
3103.8674,96.1379
3104.8318,96.055
3105.7959,95.9684
3106.7603,95.8806
3107.7244,95.793
3108.6887,95.7047
3109.6528,95.6135
3110.6172,95.5177
3111.5813,95.4168
3112.5457,95.3121
3113.5098,95.2057
3114.4741,95.0995
3115.4382,94.9952
3116.4026,94.8943
3117.3667,94.7978
3118.3311,94.707
3119.2952,94.6217
3120.2595,94.5411
3121.2236,94.4626
3122.1880,94.3836
3123.1521,94.3016
3124.1165,94.2156
3125.0806,94.1259
3126.0449,94.0337
3127.0090,93.9397
3127.9734,93.8439
3128.9375,93.7455
3129.9019,93.6441
3130.8660,93.5409
3131.8303,93.4384
3132.7944,93.34
3133.7588,93.2479
3134.7229,93.1617
3135.6873,93.0788
3136.6514,92.9956
3137.6157,92.9096
3138.5798,92.8196
3139.5442,92.7261
3140.5083,92.63
3141.4727,92.5319
3142.4368,92.4313
3143.4011,92.327
3144.3652,92.2188
3145.3296,92.1076
3146.2937,91.9964
3147.2581,91.889
3148.2222,91.7881
3149.1865,91.6943
3150.1506,91.6041
3151.1150,91.5121
3152.0791,91.4131
3153.0435,91.3051
3154.0076,91.1905
3154.9719,91.0749
3155.9360,90.9636
3156.9004,90.8592
3157.8645,90.76
3158.8289,90.662
3159.7930,90.5613
3160.7573,90.4565
3161.7214,90.3482
3162.6858,90.2384
3163.6499,90.1283
3164.6143,90.018
3165.5784,89.9079
3166.5427,89.799
3167.5068,89.6934
3168.4712,89.5928
3169.4353,89.5294
3170.3997,89.4342
3171.3638,89.3351
3172.3281,89.2288
3173.2922,89.1147
3174.2566,88.9951
3175.2207,88.8741
3176.1851,88.7553
3177.1492,88.6413
3178.1135,88.533
3179.0776,88.4306
3180.0420,88.3337
3181.0061,88.2407
3181.9705,88.1492
3182.9346,88.0562
3183.8989,87.959
3184.8630,87.8563
3185.8274,87.7491
3186.7915,87.6396
3187.7559,87.5307
3188.7200,87.4243
3189.6843,87.3214
3190.6484,87.2215
3191.6128,87.123
3192.5769,87.0237
3193.5413,86.9217
3194.5054,86.8163
3195.4697,86.7087
3196.4338,86.6019
3197.3982,86.4996
3198.3623,86.4039
3199.3267,86.3142
3200.2908,86.2274
3201.2551,86.1389
3202.2192,86.0455
3203.1836,85.9456
3204.1477,85.8405
3205.1121,85.7332
3206.0762,85.6271
3207.0405,85.525
3208.0046,85.428
3208.9690,85.3351
3209.9331,85.2434
3210.8975,85.1495
3211.8616,85.0516
3212.8259,84.9506
3213.7900,84.8503
3214.7544,84.7555
3215.7185,84.669
3216.6829,84.5904
3217.6470,84.5158
3218.6113,84.4396
3219.5754,84.3572
3220.5398,84.2668
3221.5039,84.17
3222.4683,84.0703
3223.4324,83.9716
3224.3967,83.8767
3225.3608,83.7867
3226.3252,83.7019
3227.2893,83.6216
3228.2537,83.5446
3229.2178,83.4697
3230.1821,83.396
3231.1462,83.3226
3232.1106,83.2495
3233.0747,83.1774
3234.0391,83.1071
3235.0032,83.0386
3235.9675,82.9705
3236.9316,82.9
3237.8960,82.824
3238.8601,82.7406
3239.8245,82.6505
3240.7886,82.5571
3241.7529,82.4654
3242.7170,82.3806
3243.6814,82.3057
3244.6455,82.2412
3245.6099,82.1845
3246.5740,82.1308
3247.5383,82.0756
3248.5024,82.0155
3249.4668,81.9493
3250.4309,81.8784
3251.3953,81.8053
3252.3594,81.7329
3253.3237,81.6634
3254.2878,81.5976
3255.2522,81.5359
3256.2163,81.4786
3257.1807,81.426
3258.1448,81.3769
3259.1091,81.3289
3260.0732,81.2779
3261.0376,81.2203
3262.0017,81.1555
3262.9661,81.0863
3263.9302,81.0177
3264.8945,80.9535
3265.8586,80.8938
3266.8230,80.8347
3267.7871,80.7706
3268.7515,80.6983
3269.7156,80.6194
3270.6799,80.54
3271.6440,80.4678
3272.6084,80.4076
3273.5725,80.3597
3274.5369,80.3199
3275.5010,80.2821
3276.4653,80.242
3277.4294,80.1983
3278.3938,80.1524
3279.3579,80.107
3280.3223,80.0635
3281.2864,80.0221
3282.2507,79.9813
3283.2148,79.9385
3284.1792,79.891
3285.1433,79.8367
3286.1077,79.775
3287.0718,79.7074
3288.0361,79.638
3289.0002,79.5723
3289.9646,79.5159
3290.9287,79.4718
3291.8931,79.439
3292.8572,79.413
3293.8215,79.3875
3294.7856,79.3574
3295.7500,79.3202
3296.7141,79.2764
3297.6785,79.2279
3298.6426,79.1773
3299.6069,79.1265
3300.5710,79.077
3301.5354,79.0297
3302.4995,78.9852
3303.4639,78.9437
3304.4280,78.905
3305.3923,78.8686
3306.3564,78.8349
3307.3208,78.8044
3308.2849,78.7779
3309.2493,78.7547
3310.2134,78.7332
3311.1777,78.7111
3312.1418,78.6872
3313.1062,78.6624
3314.0703,78.6386
3315.0347,78.6174
3315.9988,78.598
3316.9631,78.5771
3317.9272,78.5505
3318.8916,78.5157
3319.8557,78.4739
3320.8201,78.4297
3321.7842,78.3892
3322.7485,78.3573
3323.7126,78.3357
3324.6770,78.3222
3325.6411,78.3122
3326.6055,78.3008
3327.5696,78.2849
3328.5339,78.2634
3329.4980,78.2372
3330.4624,78.2084
3331.4265,78.1789
3332.3909,78.1502
3333.3550,78.1239
3334.3193,78.1018
3335.2834,78.0854
3336.2478,78.0755
3337.2119,78.0706
3338.1763,78.0679
3339.1404,78.0637
3340.1047,78.0556
3341.0688,78.0428
3342.0332,78.0256
3342.9973,78.0048
3343.9617,77.9813
3344.9258,77.9565
3345.8901,77.9337
3346.8542,77.9173
3347.8186,77.9116
3348.7827,77.9178
3349.7471,77.932
3350.7112,77.9463
3351.6755,77.9522
3352.6396,77.9448
3353.6040,77.9254
3354.5681,77.9007
3355.5325,77.88
3356.4966,77.8708
3357.4609,77.8753
3358.4250,77.8904
3359.3894,77.9085
3360.3535,77.9214
3361.3179,77.9233
3362.2820,77.9134
3363.2463,77.8956
3364.2104,77.877
3365.1748,77.8648
3366.1389,77.8634
3367.1033,77.8738
3368.0674,77.8943
3369.0317,77.9221
3369.9958,77.9545
3370.9602,77.9884
3371.9243,78.0202
3372.8887,78.0458
3373.8528,78.0627
3374.8171,78.0714
3375.7813,78.0764
3376.7456,78.0839
3377.7097,78.0988
3378.6741,78.1215
3379.6382,78.1481
3380.6025,78.1733
3381.5667,78.1934
3382.5310,78.2083
3383.4951,78.2211
3384.4595,78.2353
3385.4236,78.2527
3386.3879,78.2725
3387.3521,78.293
3388.3164,78.3131
3389.2805,78.333
3390.2449,78.3541
3391.2090,78.3783
3392.1733,78.4072
3393.1375,78.4424
3394.1018,78.4849
3395.0659,78.5342
3396.0303,78.588
3396.9944,78.6412
3397.9587,78.6876
3398.9229,78.7233
3399.8872,78.7492
3400.8513,78.771
3401.8157,78.7964
3402.7798,78.8311
3403.7441,78.8755
3404.7083,78.9258
3405.6726,78.9771
3406.6367,79.0265
3407.6011,79.0748
3408.5652,79.1249
3409.5295,79.1783
3410.4937,79.2342
3411.4580,79.289
3412.4221,79.339
3413.3865,79.3819
3414.3506,79.4177
3415.3149,79.4481
3416.2791,79.4751
3417.2434,79.5022
3418.2075,79.5346
3419.1719,79.579
3420.1360,79.6406
3421.1003,79.7193
3422.0645,79.808
3423.0288,79.896
3423.9929,79.9746
3424.9573,80.042
3425.9214,80.1038
3426.8857,80.1692
3427.8499,80.2454
3428.8142,80.333
3429.7783,80.4257
3430.7427,80.515
3431.7068,80.5956
3432.6711,80.6678
3433.6353,80.7366
3434.5996,80.8072
3435.5637,80.8816
3436.5281,80.9574
3437.4922,81.0307
3438.4565,81.0975
3439.4207,81.1562
3440.3850,81.2072
3441.3491,81.2527
3442.3135,81.2972
3443.2776,81.3471
3444.2419,81.4097
3445.2061,81.4906
3446.1704,81.5897
3447.1345,81.7003
3448.0989,81.8115
3449.0630,81.9144
3450.0273,82.0066
3450.9915,82.0909
3451.9558,82.1719
3452.9199,82.2515
3453.8843,82.3292
3454.8484,82.403
3455.8127,82.4726
3456.7769,82.5398
3457.7412,82.6081
3458.7053,82.6804
3459.6697,82.7582
3460.6338,82.8417
3461.5981,82.93
3462.5623,83.0221
3463.5266,83.1167
3464.4907,83.2128
3465.4551,83.3096
3466.4192,83.4063
3467.3835,83.5022
3468.3477,83.596
3469.3120,83.6865
3470.2761,83.7744
3471.2405,83.8631
3472.2046,83.9576
3473.1689,84.0617
3474.1331,84.1732
3475.0974,84.2832
3476.0615,84.3803
3477.0259,84.457
3477.9900,84.5157
3478.9543,84.5685
3479.9185,84.6312
3480.8828,84.7149
3481.8469,84.8198
3482.8113,84.936
3483.7754,85.0524
3484.7397,85.1636
3485.7039,85.2722
3486.6682,85.3836
3487.6323,85.4999
3488.5967,85.6171
3489.5608,85.7269
3490.5251,85.8236
3491.4893,85.9086
3492.4536,85.9907
3493.4177,86.0811
3494.3821,86.1873
3495.3462,86.3076
3496.3105,86.4312
3497.2747,86.5446
3498.2390,86.6401
3499.2031,86.7208
3500.1675,86.7995
3501.1316,86.8927
3502.0959,87.0121
3503.0601,87.1557
3504.0244,87.3084
3504.9885,87.4532
3505.9529,87.5824
3506.9170,87.6997
3507.8813,87.8143
3508.8455,87.9338
3509.8098,88.0602
3510.7739,88.1897
3511.7383,88.3172
3512.7024,88.4411
3513.6667,88.5643
3514.6309,88.6899
3515.5952,88.8173
3516.5593,88.9418
3517.5237,89.0572
3518.4878,89.161
3519.4521,89.2565
3520.4163,89.3514
3521.3806,89.4539
3522.3447,89.5678
3523.3091,89.6906
3524.2732,89.8161
3525.2375,89.94
3526.2017,90.0643
3527.1660,90.1948
3528.1301,90.3358
3529.0945,90.4846
3530.0586,90.6326
3531.0229,90.7728
3531.9871,90.9049
3532.9514,91.0355
3533.9155,91.1734
3534.8799,91.3242
3535.8440,91.4853
3536.8083,91.645
3537.7725,91.7872
3538.7368,91.9001
3539.7009,91.9821
3540.6653,92.0427
3541.6294,92.0992
3542.5938,92.1743
3543.5579,92.2903
3544.5222,92.4585
3545.4863,92.6663
3546.4507,92.8793
3547.4148,93.0637
3548.3792,93.2077
3549.3433,93.3241
3550.3076,93.4367
3551.2717,93.5666
3552.2361,93.7214
3553.2002,93.8921
3554.1646,94.0605
3555.1287,94.2125
3556.0930,94.3453
3557.0571,94.463
3558.0215,94.5696
3558.9856,94.6645
3559.9500,94.7433
3560.9141,94.803
3561.8784,94.8462
3562.8425,94.8821
3563.8069,94.9266
3564.7710,95.0083
3565.7354,95.1674
3566.6995,95.4208
3567.6638,95.7164
3568.6279,95.9673
3569.5923,96.1348
3570.5564,96.2403
3571.5208,96.3231
3572.4849,96.4075
3573.4492,96.4983
3574.4133,96.5898
3575.3777,96.678
3576.3418,96.7645
3577.3062,96.8543
3578.2703,96.949
3579.2346,97.0428
3580.1987,97.1267
3581.1631,97.1958
3582.1272,97.2551
3583.0916,97.3163
3584.0557,97.3905
3585.0200,97.4869
3585.9841,97.6143
3586.9485,97.7695
3587.9126,97.9165
3588.8770,98.0069
3589.8411,98.0289
3590.8054,98.0122
3591.7695,97.9947
3592.7339,97.9992
3593.6980,98.0299
3594.6624,98.0776
3595.6265,98.1278
3596.5908,98.1724
3597.5549,98.2189
3598.5193,98.2856
3599.4834,98.3861
3600.4478,98.5148
3601.4119,98.6486
3602.3762,98.7641
3603.3403,98.8547
3604.3047,98.9289
3605.2688,99.0011
3606.2332,99.083
3607.1973,99.1796
3608.1616,99.2822
3609.1257,99.3692
3610.0901,99.4204
3611.0542,99.4323
3612.0186,99.4183
3612.9829,99.3986
3613.9470,99.39
3614.9114,99.4024
3615.8755,99.4407
3616.8398,99.5078
3617.8040,99.604
3618.7683,99.717
3619.7324,99.8098
3620.6968,99.8374
3621.6609,99.7915
3622.6252,99.7133
3623.5894,99.6619
3624.5537,99.6698
3625.5178,99.7397
3626.4822,99.8437
3627.4463,99.9517
3628.4106,100.05
3629.3748,100.111
3630.3391,100.098
3631.3032,100.028
3632.2676,99.9599
3633.2317,99.935
3634.1960,99.9578
3635.1602,100.004
3636.1245,100.042
3637.0886,100.054
3638.0530,100.042
3639.0171,100.011
3639.9814,99.9688
3640.9456,99.9167
3641.9099,99.8598
3642.8740,99.8084
3643.8384,99.772
3644.8025,99.7451
3645.7668,99.6972
3646.7310,99.599
3647.6953,99.4985
3648.6594,99.5278
3649.6238,99.6889
3650.5879,99.8091
3651.5522,99.8036
3652.5164,99.7248
3653.4807,99.6428
3654.4448,99.5858
3655.4092,99.546
3656.3733,99.5046
3657.3376,99.4509
3658.3018,99.3902
3659.2661,99.3412
3660.2302,99.3202
3661.1946,99.3274
3662.1587,99.3469
3663.1230,99.3624
3664.0872,99.3721
3665.0515,99.3858
3666.0156,99.4088
3666.9800,99.4286
3667.9441,99.4263
3668.9084,99.4009
3669.8726,99.3689
3670.8369,99.3371
3671.8010,99.3019
3672.7654,99.2626
3673.7295,99.2288
3674.6938,99.232
3675.6580,99.3075
3676.6223,99.4296
3677.5864,99.5266
3678.5508,99.5665
3679.5149,99.5658
3680.4792,99.5457
3681.4434,99.5147
3682.4077,99.4798
3683.3718,99.4567
3684.3362,99.4626
3685.3003,99.4969
3686.2646,99.5283
3687.2288,99.5131
3688.1931,99.4467
3689.1572,99.3884
3690.1216,99.3895
3691.0857,99.4362
3692.0500,99.4969
3693.0142,99.5616
3693.9785,99.6314
3694.9426,99.7057
3695.9070,99.7822
3696.8711,99.8615
3697.8354,99.9465
3698.7996,100.039
3699.7639,100.135
3700.7280,100.23
3701.6924,100.312
3702.6565,100.368
3703.6208,100.392
3704.5850,100.391
3705.5493,100.383
3706.5134,100.377
3707.4778,100.369
3708.4419,100.357
3709.4063,100.372
3710.3704,100.483
3711.3347,100.698
3712.2988,100.916
3713.2632,101.032
3714.2273,101.03
3715.1917,100.959
3716.1558,100.868
3717.1201,100.782
3718.0842,100.706
3719.0486,100.633
3720.0127,100.563
3720.9771,100.501
3721.9412,100.459
3722.9055,100.443
3723.8696,100.454
3724.8340,100.482
3725.7981,100.508
3726.7625,100.52
3727.7266,100.52
3728.6909,100.519
3729.6550,100.523
3730.6194,100.522
3731.5835,100.497
3732.5479,100.443
3733.5120,100.398
3734.4763,100.424
3735.4404,100.515
3736.4048,100.581
3737.3689,100.564
3738.3333,100.505
3739.2974,100.495
3740.2617,100.596
3741.2258,100.805
3742.1902,101.044
3743.1543,101.187
3744.1187,101.14
3745.0828,100.911
3746.0471,100.595
3747.0112,100.303
3747.9756,100.104
3748.9397,100.029
3749.9041,100.089
3750.8682,100.248
3751.8325,100.381
3752.7966,100.402
3753.7610,100.306
3754.7251,100.173
3755.6895,100.068
3756.6536,100.016
3757.6179,100.021
3758.5820,100.072
3759.5464,100.142
3760.5105,100.198
3761.4749,100.225
3762.4390,100.231
3763.4033,100.228
3764.3674,100.226
3765.3318,100.227
3766.2959,100.232
3767.2603,100.241
3768.2244,100.255
3769.1887,100.279
3770.1528,100.312
3771.1172,100.34
3772.0813,100.347
3773.0457,100.333
3774.0098,100.305
3774.9741,100.273
3775.9382,100.24
3776.9026,100.205
3777.8667,100.177
3778.8311,100.164
3779.7952,100.163
3780.7595,100.159
3781.7236,100.141
3782.6880,100.112
3783.6521,100.087
3784.6165,100.082
3785.5806,100.107
3786.5449,100.159
3787.5090,100.222
3788.4734,100.279
3789.4375,100.317
3790.4019,100.334
3791.3660,100.327
3792.3303,100.295
3793.2944,100.237
3794.2588,100.157
3795.2229,100.076
3796.1873,100.02
3797.1514,100.007
3798.1157,100.031
3799.0798,100.066
3800.0442,100.084
3801.0083,100.075
3801.9727,100.049
3802.9368,100.023
3803.9011,100.022
3804.8652,100.064
3805.8296,100.145
3806.7937,100.234
3807.7581,100.283
3808.7222,100.267
3809.6865,100.21
3810.6506,100.167
3811.6150,100.173
3812.5791,100.221
3813.5435,100.265
3814.5076,100.256
3815.4719,100.184
3816.4360,100.08
3817.4004,99.9861
3818.3645,99.9325
3819.3289,99.9303
3820.2930,99.9685
3821.2573,100.01
3822.2214,100.011
3823.1858,99.9605
3824.1499,99.8908
3825.1143,99.8466
3826.0784,99.8521
3827.0427,99.9022
3828.0068,99.9713
3828.9712,100.03
3829.9353,100.062
3830.8997,100.066
3831.8638,100.057
3832.8281,100.048
3833.7922,100.045
3834.7566,100.035
3835.7207,100.001
3836.6851,99.9326
3837.6492,99.8517
3838.6135,99.7953
3839.5776,99.7875
3840.5420,99.8274
3841.5061,99.9012
3842.4705,99.9875
3843.4346,100.057
3844.3989,100.08
3845.3630,100.047
3846.3274,99.981
3847.2915,99.9316
3848.2559,99.9517
3849.2200,100.069
3850.1843,100.265
3851.1484,100.481
3852.1128,100.658
3853.0769,100.769
3854.0413,100.758
3855.0054,100.581
3855.9697,100.308
3856.9338,100.063
3857.8982,99.9196
3858.8623,99.8845
3859.8267,99.9135
3860.7908,99.9472
3861.7551,99.9489
3862.7192,99.9289
3863.6836,99.9258
3864.6477,99.9619
3865.6121,100.026
3866.5762,100.089
3867.5405,100.124
3868.5046,100.113
3869.4690,100.069
3870.4331,100.022
3871.3975,100.002
3872.3616,100.01
3873.3259,100.029
3874.2900,100.048
3875.2544,100.068
3876.2185,100.089
3877.1829,100.109
3878.1470,100.116
3879.1113,100.1
3880.0754,100.072
3881.0398,100.054
3882.0039,100.069
3882.9683,100.122
3883.9324,100.199
3884.8967,100.269
3885.8608,100.301
3886.8252,100.282
3887.7893,100.226
3888.7537,100.155
3889.7178,100.091
3890.6821,100.046
3891.6462,100.025
3892.6106,100.021
3893.5747,100.023
3894.5391,100.03
3895.5032,100.047
3896.4675,100.073
3897.4316,100.088
3898.3960,100.074
3899.3601,100.034
3900.3245,99.9874
3901.2886,99.9564
3902.2529,99.9514
3903.2170,99.9697
3904.1814,99.997
3905.1455,100.016
3906.1099,100.02
3907.0740,100.018
3908.0383,100.021
3909.0024,100.034
3909.9668,100.05
3910.9309,100.062
3911.8953,100.068
3912.8594,100.073
3913.8237,100.083
3914.7878,100.103
3915.7522,100.133
3916.7163,100.165
3917.6807,100.185
3918.6448,100.177
3919.6091,100.135
3920.5732,100.07
3921.5376,100.004
3922.5017,99.9525
3923.4661,99.9264
3924.4302,99.921
3925.3945,99.9216
3926.3586,99.914
3927.3230,99.8949
3928.2871,99.8715
3929.2515,99.856
3930.2156,99.8609
3931.1799,99.8935
3932.1440,99.9488
3933.1084,100.009
3934.0725,100.056
3935.0369,100.081
3936.0010,100.088
3936.9653,100.079
3937.9294,100.056
3938.8938,100.021
3939.8579,99.9772
3940.8223,99.9344
3941.7864,99.9074
3942.7507,99.9057
3943.7148,99.9263
3944.6792,99.9553
3945.6433,99.9761
3946.6077,99.9764
3947.5718,99.9534
3948.5361,99.9159
3949.5002,99.8801
3950.4646,99.8599
3951.4287,99.8603
3952.3931,99.8773
3953.3572,99.9022
3954.3215,99.9254
3955.2856,99.9395
3956.2500,99.9414
3957.2141,99.9335
3958.1785,99.9216
3959.1426,99.9136
3960.1069,99.9159
3961.0710,99.9304
3962.0354,99.9529
3962.9995,99.9738
3963.9639,99.9838
3964.9280,99.9783
3965.8923,99.9595
3966.8564,99.9344
3967.8208,99.9102
3968.7849,99.8908
3969.7493,99.876
3970.7134,99.8644
3971.6777,99.857
3972.6418,99.8573
3973.6062,99.8694
3974.5703,99.8928
3975.5347,99.9213
3976.4988,99.9449
3977.4631,99.9556
3978.4272,99.9515
3979.3916,99.9369
3980.3557,99.9193
3981.3201,99.9053
3982.2842,99.8975
3983.2485,99.8944
3984.2126,99.8926
3985.1770,99.8901
3986.1411,99.8865
3987.1055,99.8825
3988.0696,99.8776
3989.0339,99.8684
3989.9980,99.8513
3990.9624,99.8249
3991.9265,99.7932
3992.8909,99.7647
3993.8550,99.7482
3994.8193,99.7474
3995.7834,99.7584
3996.7478,99.7719
3997.7119,99.7794
3998.6763,99.7785
3999.6404,99.7739
4000.6047,99.641

##### Extended Information
[Comments]
Sample name
Comment
User
Division
Company,HANKYONG

[Detailed Information]
Creation date,4/24/2024 10:57 AM

Data array type,Linear data array
Horizontal axis,Wavenumber [cm-1]
Vertical axis,%T
Start,649.893 cm-1
End,4000.6 cm-1
Data interval,0.964233 cm-1
Data points,3476    

[Measurement Information]
Model Name,FT/IR-4700typeA
Serial Number,D056761788

Accessory,ATR PRO ONE
Accessory S/N,C174761809
Incident angle,45 deg

Measurement Date,4/24/2024 10:55 AM

Light Source,Standard
Detector,TGS
Accumulation,32
Resolution,4 cm-1
Zero Filling,On
Apodization,Cosine
Gain,Auto (4)
Aperture,Auto (7.1 mm)
Scanning Speed,Auto (2 mm/sec)
Filter,Auto (30000 Hz)

