TITLE,
DATA TYPE,INFRARED SPECTRUM
ORIGIN,JASCO
OWNER,
DATE,24/04/24
TIME,11:02:34
SPECTROMETER/DATA SYSTEM,
LOCALE,1033
RESOLUTION,
DELTAX,0.964233
XUNITS,1/CM
YUNITS,TRANSMITTANCE
FIRSTX,  649.8934
LASTX, 4000.6047
NPOINTS,    3476
FIRSTY,    99.84763
MAXY,   100.80222
MINY,    50.74788
XYDATA
649.8934,99.8476
650.8576,99.758
651.8218,99.6804
652.7861,99.6239
653.7503,99.5721
654.7145,99.5174
655.6788,99.4573
656.6430,99.3867
657.6072,99.2986
658.5715,99.192
659.5357,99.0802
660.4999,98.9866
661.4642,98.9234
662.4284,98.8722
663.3926,98.7831
664.3569,98.5839
665.3211,98.1882
666.2853,97.5165
667.2496,96.594
668.2138,95.715
669.1780,95.3121
670.1423,95.4531
671.1065,95.8489
672.0707,96.2495
673.0350,96.5528
673.9992,96.7362
674.9634,96.8069
675.9277,96.7904
676.8919,96.7315
677.8561,96.6858
678.8204,96.7041
679.7846,96.8185
680.7488,97.035
681.7131,97.333
682.6773,97.6746
683.6415,98.0223
684.6058,98.3526
685.5700,98.6552
686.5342,98.9197
687.4985,99.124
688.4627,99.236
689.4269,99.2272
690.3912,99.0916
691.3554,98.8721
692.3196,98.681
693.2839,98.6703
694.2481,98.9135
695.2123,99.3256
696.1766,99.7476
697.1408,100.064
698.1050,100.237
699.0693,100.283
700.0335,100.249
700.9977,100.182
701.9620,100.116
702.9262,100.062
703.8904,100.022
704.8547,99.998
705.8189,99.9915
706.7831,100.001
707.7474,100.015
708.7116,100.019
709.6758,99.9961
710.6401,99.9395
711.6043,99.8528
712.5685,99.7458
713.5328,99.6265
714.4970,99.4933
715.4612,99.6294
716.4255,99.4087
717.3897,99.1524
718.3539,98.8837
719.3182,98.6442
720.2824,98.4771
721.2466,98.4019
722.2109,98.4007
723.1751,98.4282
724.1393,98.5029
725.1036,98.599
726.0678,98.6465
727.0320,98.6724
727.9963,98.7145
728.9605,98.803
729.9247,98.9465
730.8890,99.1319
731.8532,99.3328
732.8174,99.523
733.7817,99.6855
734.7459,99.8146
735.7101,99.9116
736.6744,99.978
737.6386,100.012
738.6028,100.008
739.5671,99.9675
740.5313,99.8995
741.4955,99.8254
742.4598,99.7707
743.4240,99.7543
744.3882,99.7785
745.3525,99.827
746.3167,99.8728
747.2809,99.8923
748.2452,99.8768
749.2094,99.8363
750.1736,99.7918
751.1379,99.763
752.1021,99.758
753.0663,99.771
754.0306,99.7883
754.9948,99.7969
755.9590,99.7903
756.9233,99.7693
757.8875,99.7396
758.8517,99.7087
759.8160,99.6845
760.7802,99.674
761.7444,99.6816
762.7087,99.7068
763.6729,99.7436
764.6371,99.7843
765.6014,99.824
766.5656,99.8641
767.5298,99.9099
768.4941,99.965
769.4583,100.025
770.4225,100.079
771.3868,100.113
772.3510,100.12
773.3152,100.101
774.2795,100.063
775.2437,100.014
776.2079,99.96
777.1722,99.9029
778.1364,99.8453
779.1006,99.7925
780.0649,99.7508
781.0291,99.723
781.9933,99.7059
782.9576,99.691
783.9218,99.669
784.8860,99.6348
785.8503,99.5886
786.8145,99.5337
787.7787,99.4736
788.7430,99.41
789.7072,99.3442
790.6714,99.2784
791.6357,99.2162
792.5999,99.1599
793.5641,99.1079
794.5284,99.054
795.4926,98.9898
796.4568,98.9093
797.4211,98.8124
798.3853,98.7056
799.3495,98.5981
800.3138,98.4969
801.2780,98.4022
802.2422,98.3066
803.2065,98.1974
804.1707,98.0623
805.1349,97.8938
806.0992,97.6921
807.0634,97.4645
808.0276,97.2217
808.9919,96.9742
809.9561,96.7295
810.9203,96.4925
811.8846,96.2672
812.8488,96.0585
813.8130,95.872
814.7773,95.7121
815.7415,95.5794
816.7057,95.4693
817.6700,95.3732
818.6342,95.2831
819.5984,95.1962
820.5627,95.1174
821.5269,95.0569
822.4911,95.0243
823.4554,95.022
824.4196,95.0423
825.3839,95.0704
826.3481,95.091
827.3123,95.0951
828.2766,95.0808
829.2408,95.0492
830.2050,94.9973
831.1693,94.914
832.1335,94.7832
833.0977,94.5906
834.0620,94.3324
835.0262,94.0181
835.9904,93.6668
836.9547,93.2984
837.9189,92.9261
838.8831,92.5534
839.8474,92.1762
840.8116,91.789
841.7758,91.3912
842.7401,90.9905
843.7043,90.6028
844.6685,90.2483
845.6328,89.9458
846.5970,89.7065
847.5612,89.5308
848.5255,89.4088
849.4897,89.3251
850.4539,89.266
851.4182,89.2245
852.3824,89.2005
853.3466,89.1966
854.3109,89.2135
855.2751,89.2464
856.2393,89.2875
857.2036,89.3302
858.1678,89.3731
859.1320,89.421
860.0963,89.4813
861.0605,89.561
862.0247,89.6652
862.9890,89.7981
863.9532,89.9656
864.9174,90.1743
865.8817,90.4288
866.8459,90.728
867.8101,91.0649
868.7744,91.43
869.7386,91.8159
870.7028,92.219
871.6671,92.6353
872.6313,93.0548
873.5955,93.4582
874.5598,93.821
875.5240,94.1239
876.4882,94.3624
877.4525,94.5486
878.4167,94.7043
879.3809,94.8482
880.3452,94.9878
881.3094,95.1187
882.2736,95.2308
883.2379,95.3166
884.2021,95.3735
885.1663,95.4027
886.1306,95.4046
887.0948,95.378
888.0590,95.322
889.0233,95.2401
889.9875,95.1395
890.9517,95.0287
891.9160,94.912
892.8802,94.7881
893.8444,94.6519
894.8087,94.499
895.7729,94.3279
896.7371,94.1395
897.7014,93.9334
898.6656,93.7063
899.6298,93.4536
900.5941,93.1734
901.5583,92.8699
902.5225,92.5543
903.4868,92.2404
904.4510,91.9403
905.4152,91.6604
906.3795,91.4006
907.3437,91.1559
908.3079,90.9203
909.2722,90.6899
910.2364,90.4654
911.2006,90.2534
912.1649,90.0652
913.1291,89.913
914.0933,89.806
915.0576,89.7468
916.0218,89.7312
916.9860,89.7504
917.9503,89.7965
918.9145,89.866
919.8787,89.9622
920.8430,90.0933
921.8072,90.2682
922.7714,90.493
923.7357,90.7675
924.6999,91.0863
925.6641,91.4409
926.6284,91.8246
927.5926,92.236
928.5568,92.6797
929.5211,93.1644
930.4853,93.6978
931.4495,94.2817
932.4138,94.9097
933.3780,95.5685
934.3422,96.2412
935.3065,96.9108
936.2707,97.5616
937.2349,98.1777
938.1992,98.7422
939.1634,99.2377
940.1276,99.6496
941.0919,99.97
942.0561,100.2
943.0203,100.347
943.9846,100.422
944.9488,100.438
945.9130,100.402
946.8773,100.323
947.8415,100.206
948.8057,100.072
949.7700,99.9542
950.7342,99.809
951.6984,99.6351
952.6627,99.4304
953.6269,99.1928
954.5911,98.9208
955.5554,98.6129
956.5196,98.2667
957.4838,97.8785
958.4481,97.4442
959.4123,96.962
960.3765,96.4337
961.3408,95.8659
962.3050,95.2686
963.2692,94.6536
964.2335,94.032
965.1977,93.412
966.1619,92.7995
967.1262,92.1982
968.0904,91.6127
969.0546,91.0485
970.0189,90.5124
970.9831,90.0105
971.9473,89.5458
972.9116,89.118
973.8758,88.7236
974.8400,88.3574
975.8043,88.0134
976.7685,87.6834
977.7327,87.3561
978.6970,87.0171
979.6612,86.6513
980.6254,86.2469
981.5897,85.7989
982.5539,85.3087
983.5181,84.7834
984.4824,84.2326
985.4466,83.6684
986.4108,83.1058
987.3751,82.5636
988.3393,82.0635
989.3035,81.6264
990.2678,81.2672
991.2320,80.9915
992.1962,80.7951
993.1605,80.6672
994.1247,80.5945
995.0889,80.5646
996.0532,80.5665
997.0174,80.5878
997.9816,80.6129
998.9459,80.6225
999.9101,80.5955
1000.8743,80.5134
1001.8386,80.3633
1002.8028,80.1371
1003.7670,79.8285
1004.7313,79.4291
1005.6955,78.9266
1006.6597,78.3079
1007.6240,77.5637
1008.5882,76.6931
1009.5524,75.7054
1010.5167,74.6182
1011.4809,73.4529
1012.4451,72.2304
1013.4094,70.9675
1014.3736,69.6752
1015.3378,68.3594
1016.3021,67.0246
1017.2663,65.6786
1018.2305,64.3351
1019.1948,63.0116
1020.1590,61.7216
1021.1232,60.467
1022.0875,59.2371
1023.0517,58.0183
1024.0160,56.81
1024.9802,55.6367
1025.9445,54.5464
1026.9087,53.5924
1027.8729,52.8109
1028.8372,52.2046
1029.8014,51.7457
1030.7656,51.393
1031.7299,51.1149
1032.6941,50.9032
1033.6583,50.7724
1034.6226,50.7479
1035.5868,50.8495
1036.5510,51.0809
1037.5153,51.4271
1038.4795,51.8596
1039.4437,52.3459
1040.4080,52.8586
1041.3722,53.3813
1042.3364,53.9099
1043.3007,54.4488
1044.2649,55.0063
1045.2291,55.5891
1046.1934,56.202
1047.1576,56.85
1048.1218,57.5412
1049.0861,58.2854
1050.0503,59.0891
1051.0145,59.9485
1051.9788,60.8467
1052.9430,61.7585
1053.9072,62.6631
1054.8715,63.5566
1055.8357,64.4569
1056.7999,65.3938
1057.7642,66.3869
1058.7284,67.4231
1059.6926,68.4475
1060.6569,69.3784
1061.6211,70.1421
1062.5853,70.7112
1063.5496,71.1247
1064.5138,71.4736
1065.4780,71.859
1066.4423,72.3423
1067.4065,72.9151
1068.3707,73.5059
1069.3350,74.0175
1070.2992,74.3742
1071.2634,74.551
1072.2277,74.5743
1073.1919,74.4982
1074.1561,74.3746
1075.1204,74.2352
1076.0846,74.0892
1077.0488,73.9336
1078.0131,73.7645
1078.9773,73.5815
1079.9415,73.3861
1080.9058,73.1781
1081.8700,72.954
1082.8342,72.7093
1083.7985,72.4433
1084.7627,72.1634
1085.7269,71.8858
1086.6912,71.6315
1087.6554,71.4198
1088.6196,71.2601
1089.5839,71.1465
1090.5481,71.0599
1091.5123,70.9755
1092.4766,70.8734
1093.4408,70.7455
1094.4050,70.5955
1095.3693,70.4314
1096.3335,70.2567
1097.2977,70.0662
1098.2620,69.8482
1099.2262,69.5932
1100.1904,69.3005
1101.1547,68.9809
1102.1189,68.6526
1103.0831,68.3347
1104.0474,68.0419
1105.0116,67.7829
1105.9758,67.564
1106.9401,67.3942
1107.9043,67.2888
1108.8685,67.2696
1109.8328,67.3618
1110.7970,67.5889
1111.7612,67.9672
1112.7255,68.5045
1113.6897,69.2001
1114.6539,70.048
1115.6182,71.0402
1116.5824,72.1681
1117.5466,73.4225
1118.5109,74.7919
1119.4751,76.2611
1120.4393,77.8113
1121.4036,79.4212
1122.3678,81.0686
1123.3320,82.7326
1124.2963,84.3935
1125.2605,86.033
1126.2247,87.6335
1127.1890,89.1777
1128.1532,90.6484
1129.1174,92.0295
1130.0817,93.3074
1131.0459,94.4724
1132.0101,95.521
1132.9744,96.4554
1133.9386,97.2816
1134.9028,98.0066
1135.8671,98.6349
1136.8313,99.1673
1137.7955,99.603
1138.7598,99.9423
1139.7240,100.189
1140.6882,100.351
1141.6525,100.438
1142.6167,100.438
1143.5809,100.297
1144.5452,100.106
1145.5094,99.8749
1146.4736,99.6204
1147.4379,99.3616
1148.4021,99.1166
1149.3663,98.8987
1150.3306,98.715
1151.2948,98.5685
1152.2590,98.4607
1153.2233,98.392
1154.1875,98.3612
1155.1517,98.3624
1156.1160,98.3833
1157.0802,98.4059
1158.0444,98.4092
1159.0087,98.3733
1159.9729,98.2826
1160.9371,98.1281
1161.9014,97.9079
1162.8656,97.6258
1163.8298,97.2896
1164.7941,96.909
1165.7583,96.493
1166.7225,96.0495
1167.6868,95.5838
1168.6510,95.099
1169.6152,94.5954
1170.5795,94.0704
1171.5437,93.5197
1172.5079,92.9391
1173.4722,92.3276
1174.4364,91.6886
1175.4006,91.0297
1176.3649,90.36
1177.3291,89.6869
1178.2933,89.0151
1179.2576,88.3471
1180.2218,87.6853
1181.1860,87.0338
1182.1503,86.3979
1183.1145,85.7834
1184.0787,85.1949
1185.0430,84.6354
1186.0072,84.1062
1186.9714,83.6078
1187.9357,83.1392
1188.8999,82.6975
1189.8641,82.278
1190.8284,81.8749
1191.7926,81.4822
1192.7568,81.0958
1193.7211,80.7137
1194.6853,80.3359
1195.6495,79.9632
1196.6138,79.5964
1197.5780,79.2354
1198.5422,78.8796
1199.5065,78.5754
1200.4707,78.2229
1201.4349,77.8738
1202.3992,77.5284
1203.3634,77.1881
1204.3276,76.8569
1205.2919,76.5414
1206.2561,76.2499
1207.2203,75.9901
1208.1846,75.7669
1209.1488,75.5816
1210.1130,75.433
1211.0773,75.3195
1212.0415,75.2407
1213.0057,75.1983
1213.9700,75.1948
1214.9342,75.2325
1215.8984,75.3117
1216.8627,75.4308
1217.8269,75.5855
1218.7911,75.7695
1219.7554,75.9751
1220.7196,76.195
1221.6838,76.4234
1222.6481,76.656
1223.6123,76.889
1224.5765,77.1183
1225.5408,77.3385
1226.5050,77.5436
1227.4692,77.7282
1228.4335,77.8879
1229.3977,78.0205
1230.3619,78.1265
1231.3262,78.2111
1232.2904,78.2844
1233.2546,78.36
1234.2189,78.4499
1235.1831,78.5585
1236.1473,78.681
1237.1116,78.8076
1238.0758,78.9345
1239.0400,79.0714
1240.0043,79.2415
1240.9685,79.4687
1241.9327,79.7613
1242.8970,80.1005
1243.8612,80.4449
1244.8254,80.7482
1245.7897,80.9803
1246.7539,81.1388
1247.7181,81.2445
1248.6824,81.3257
1249.6466,81.4028
1250.6108,81.4805
1251.5751,81.5507
1252.5393,81.6016
1253.5035,81.6245
1254.4678,81.6168
1255.4320,81.5807
1256.3962,81.5201
1257.3605,81.4393
1258.3247,81.3423
1259.2889,81.2329
1260.2532,81.114
1261.2174,80.9868
1262.1816,80.8514
1263.1459,80.7075
1264.1101,80.5569
1265.0743,80.4038
1266.0386,80.2549
1267.0028,80.1184
1267.9670,80.0037
1268.9313,79.9203
1269.8955,79.8775
1270.8597,79.8825
1271.8240,79.9391
1272.7882,80.0463
1273.7524,80.1996
1274.7167,80.3925
1275.6809,80.6188
1276.6451,80.873
1277.6094,81.1504
1278.5736,81.4456
1279.5378,81.7527
1280.5021,82.0658
1281.4663,82.38
1282.4305,82.6921
1283.3948,83.0005
1284.3590,83.3041
1285.3232,83.6015
1286.2875,83.8907
1287.2517,84.1696
1288.2159,84.4367
1289.1802,84.6914
1290.1444,84.9337
1291.1086,85.1636
1292.0729,85.3805
1293.0371,85.5843
1294.0013,85.7754
1294.9656,85.9555
1295.9298,86.1268
1296.8940,86.291
1297.8583,86.4478
1298.8225,86.5944
1299.7867,86.7259
1300.7510,86.8375
1301.7152,86.925
1302.6794,86.9869
1303.6437,87.0248
1304.6079,87.0418
1305.5721,87.0406
1306.5364,87.0231
1307.5006,86.9889
1308.4648,86.9367
1309.4291,86.8652
1310.3933,86.775
1311.3575,86.6691
1312.3218,86.5522
1313.2860,86.4292
1314.2502,86.3034
1315.2145,86.1763
1316.1787,86.0489
1317.1429,85.9233
1318.1072,85.8031
1319.0714,85.6918
1320.0356,85.5905
1320.9999,85.4966
1321.9641,85.4068
1322.9283,85.3192
1323.8926,85.235
1324.8568,85.1588
1325.8210,85.0969
1326.7853,85.0568
1327.7495,85.0464
1328.7137,85.0738
1329.6780,85.1461
1330.6422,85.2663
1331.6064,85.4293
1332.5707,85.6213
1333.5349,85.8229
1334.4991,86.0173
1335.4634,86.1984
1336.4276,86.3754
1337.3918,86.5725
1338.3561,86.817
1339.3203,87.1163
1340.2845,87.4426
1341.2488,87.7485
1342.2130,87.9989
1343.1772,88.1848
1344.1415,88.3151
1345.1057,88.4039
1346.0699,88.464
1347.0342,88.5057
1347.9984,88.5364
1348.9626,88.5588
1349.9269,88.571
1350.8911,88.5681
1351.8553,88.546
1352.8196,88.5042
1353.7838,88.4468
1354.7480,88.3799
1355.7123,88.3074
1356.6765,88.2293
1357.6407,88.1429
1358.6050,88.0453
1359.5692,87.937
1360.5334,87.8254
1361.4977,87.7266
1362.4619,87.6539
1363.4261,87.6018
1364.3904,87.5493
1365.3546,87.4798
1366.3188,87.3912
1367.2831,87.2902
1368.2473,87.1832
1369.2115,87.0718
1370.1758,86.9531
1371.1400,86.8239
1372.1042,86.687
1373.0685,86.557
1374.0327,86.4568
1374.9969,86.4018
1375.9612,86.3863
1376.9254,86.3917
1377.8896,86.4059
1378.8539,86.4286
1379.8181,86.4642
1380.7823,86.5134
1381.7466,86.5719
1382.7108,86.6366
1383.6750,86.7128
1384.6393,86.8137
1385.6035,86.9507
1386.5677,87.1143
1387.5320,87.2557
1388.4962,87.3044
1389.4604,87.2193
1390.4247,87.0144
1391.3889,86.7393
1392.3531,86.457
1393.3174,86.2344
1394.2816,86.1314
1395.2458,86.1684
1396.2101,86.2972
1397.1743,86.4214
1398.1385,86.4575
1399.1028,86.3765
1400.0670,86.1979
1401.0313,85.9605
1401.9955,85.699
1402.9597,85.4357
1403.9240,85.1836
1404.8882,84.952
1405.8524,84.7449
1406.8167,84.5587
1407.7809,84.3853
1408.7451,84.2181
1409.7094,84.0538
1410.6736,83.8887
1411.6378,83.7189
1412.6021,83.5424
1413.5663,83.3612
1414.5305,83.1793
1415.4948,82.9937
1416.4590,82.792
1417.4232,82.5644
1418.3875,82.3174
1419.3517,82.0602
1420.3159,81.7867
1421.2802,81.4953
1422.2444,81.2072
1423.2086,80.9529
1424.1729,80.7537
1425.1371,80.6153
1426.1013,80.535
1427.0656,80.513
1428.0298,80.5588
1428.9940,80.6832
1429.9583,80.8814
1430.9225,81.1264
1431.8867,81.3896
1432.8510,81.6645
1433.8152,81.9648
1434.7794,82.3022
1435.7437,82.6569
1436.7079,82.9554
1437.6721,83.097
1438.6364,83.0354
1439.6006,82.8101
1440.5648,82.4915
1441.5291,82.1283
1442.4933,81.7358
1443.4575,81.3093
1444.4218,80.8397
1445.3860,80.3225
1446.3502,79.7635
1447.3145,79.183
1448.2787,78.6136
1449.2429,78.0886
1450.2072,77.6299
1451.1714,77.25
1452.1356,76.9563
1453.0999,76.7448
1454.0641,76.5894
1455.0283,76.4505
1455.9926,76.3339
1456.9568,76.3323
1457.9210,76.4524
1458.8853,76.5285
1459.8495,76.4874
1460.8137,76.4078
1461.7780,76.3993
1462.7422,76.555
1463.7064,76.9498
1464.6707,77.6011
1465.6349,78.4067
1466.5991,79.2028
1467.5634,79.9097
1468.5276,80.5669
1469.4918,81.2651
1470.4561,82.0946
1471.4203,83.1282
1472.3845,84.3766
1473.3488,85.6939
1474.3130,86.8219
1475.2772,87.6219
1476.2415,88.1398
1477.2057,88.4789
1478.1699,88.7133
1479.1342,88.8821
1480.0984,89.0068
1481.0626,89.1012
1482.0269,89.1707
1482.9911,89.2122
1483.9553,89.2182
1484.9196,89.1809
1485.8838,89.0901
1486.8480,88.9389
1487.8123,88.7482
1488.7765,88.5841
1489.7407,88.493
1490.7050,88.4299
1491.6692,88.326
1492.6334,88.1662
1493.5977,87.9663
1494.5619,87.7312
1495.5261,87.4524
1496.4904,87.1398
1497.4546,86.8364
1498.4188,86.5682
1499.3831,86.3141
1500.3473,86.0617
1501.3115,85.8395
1502.2758,85.6815
1503.2400,85.5747
1504.2042,85.4127
1505.1685,84.9733
1506.1327,84.051
1507.0969,82.8377
1508.0612,81.8362
1509.0254,81.1327
1509.9896,80.5363
1510.9539,79.9626
1511.9181,79.4255
1512.8823,78.9788
1513.8466,78.7044
1514.8108,78.6963
1515.7750,79.0127
1516.7393,79.635
1517.7035,80.5067
1518.6677,81.6285
1519.6320,83.0844
1520.5962,84.9149
1521.5604,86.947
1522.5247,88.8509
1523.4889,90.4227
1524.4531,91.7183
1525.4174,92.9072
1526.3816,94.072
1527.3458,95.155
1528.3101,96.0568
1529.2743,96.7459
1530.2385,97.277
1531.2028,97.7446
1532.1670,98.2261
1533.1312,98.7277
1534.0955,99.177
1535.0597,99.5078
1536.0239,99.7304
1536.9882,99.8857
1537.9524,99.9599
1538.9166,99.8743
1539.8809,99.6389
1540.8451,99.5157
1541.8093,99.6787
1542.7736,99.9387
1543.7378,100.126
1544.7020,100.222
1545.6663,100.243
1546.6305,100.249
1547.5947,100.21
1548.5590,100.148
1549.5232,100.083
1550.4874,100.016
1551.4517,99.9352
1552.4159,99.8378
1553.3801,99.7441
1554.3444,99.6882
1555.3086,99.6824
1556.2728,99.689
1557.2371,99.6611
1558.2013,99.6672
1559.1655,99.7539
1560.1298,99.6767
1561.0940,99.3116
1562.0582,98.809
1563.0225,98.3333
1563.9867,97.9589
1564.9509,97.6869
1565.9152,97.4755
1566.8794,97.2635
1567.8436,96.9984
1568.8079,96.6671
1569.7721,96.2995
1570.7363,95.9384
1571.7006,95.6118
1572.6648,95.3184
1573.6290,95.0132
1574.5933,94.6179
1575.5575,94.0884
1576.5217,93.4876
1577.4860,92.9197
1578.4502,92.4106
1579.4144,91.9318
1580.3787,91.4587
1581.3429,90.9763
1582.3071,90.4774
1583.2714,89.9678
1584.2356,89.4636
1585.1998,88.9778
1586.1641,88.5129
1587.1283,88.0673
1588.0925,87.6428
1589.0568,87.2458
1590.0210,86.8803
1590.9852,86.5444
1591.9495,86.2322
1592.9137,85.9405
1593.8779,85.6717
1594.8422,85.4293
1595.8064,85.2118
1596.7706,85.0111
1597.7349,84.8183
1598.6991,84.6297
1599.6633,84.4497
1600.6276,84.2886
1601.5918,84.1579
1602.5560,84.0634
1603.5203,84.0005
1604.4845,83.9571
1605.4487,83.9222
1606.4130,83.8958
1607.3772,83.8931
1608.3414,83.9364
1609.3057,84.0368
1610.2699,84.1822
1611.2341,84.3531
1612.1984,84.5473
1613.1626,84.79
1614.1268,85.1307
1615.0911,85.6322
1616.0553,86.3132
1617.0195,87.0538
1617.9838,87.6571
1618.9480,88.0519
1619.9122,88.325
1620.8765,88.5992
1621.8407,88.9477
1622.8049,89.3705
1623.7692,89.8049
1624.7334,90.1766
1625.6976,90.4596
1626.6619,90.681
1627.6261,90.8738
1628.5903,91.0437
1629.5546,91.1808
1630.5188,91.2896
1631.4830,91.3918
1632.4473,91.4967
1633.4115,91.577
1634.3757,91.594
1635.3400,91.5712
1636.3042,91.5781
1637.2684,91.596
1638.2327,91.5583
1639.1969,91.4656
1640.1611,91.3634
1641.1254,91.2901
1642.0896,91.2584
1643.0538,91.2471
1644.0181,91.1987
1644.9823,91.0471
1645.9465,90.7986
1646.9108,90.5635
1647.8750,90.4417
1648.8392,90.4516
1649.8035,90.5753
1650.7677,90.759
1651.7319,90.8955
1652.6962,90.9067
1653.6604,90.8223
1654.6246,90.6206
1655.5889,90.2698
1656.5531,89.8718
1657.5173,89.5435
1658.4816,89.3268
1659.4458,89.1947
1660.4100,89.0913
1661.3743,88.9768
1662.3385,88.8489
1663.3027,88.7199
1664.2670,88.5952
1665.2312,88.4765
1666.1954,88.3577
1667.1597,88.2171
1668.1239,88.0342
1669.0881,87.8289
1670.0524,87.66
1671.0166,87.5618
1671.9808,87.5204
1672.9451,87.509
1673.9093,87.4995
1674.8735,87.452
1675.8378,87.3221
1676.8020,87.0933
1677.7662,86.8027
1678.7305,86.5239
1679.6947,86.3193
1680.6589,86.2001
1681.6232,86.1164
1682.5874,85.9946
1683.5516,85.8135
1684.5159,85.598
1685.4801,85.3269
1686.4443,84.9762
1687.4086,84.5803
1688.3728,84.1937
1689.3370,83.8548
1690.3013,83.5795
1691.2655,83.3611
1692.2297,83.168
1693.1940,82.9464
1694.1582,82.6375
1695.1224,82.2152
1696.0867,81.7265
1697.0509,81.2879
1698.0151,80.9987
1698.9794,80.8347
1699.9436,80.6615
1700.9078,80.3709
1701.8721,79.9705
1702.8363,79.5465
1703.8005,79.1864
1704.7648,78.939
1705.7290,78.8079
1706.6932,78.7607
1707.6575,78.7488
1708.6217,78.7377
1709.5859,78.7219
1710.5502,78.7149
1711.5144,78.7292
1712.4786,78.767
1713.4429,78.8256
1714.4071,78.9207
1715.3713,79.1218
1716.3356,79.5349
1717.2998,80.1433
1718.2640,80.7253
1719.2283,81.1012
1720.1925,81.2989
1721.1567,81.4436
1722.1210,81.6344
1723.0852,81.9063
1724.0494,82.24
1725.0137,82.589
1725.9779,82.9114
1726.9421,83.1917
1727.9064,83.4411
1728.8706,83.6855
1729.8348,83.9542
1730.7991,84.2782
1731.7633,84.6956
1732.7275,85.2347
1733.6918,85.8396
1734.6560,86.3483
1735.6202,86.6512
1736.5845,86.8016
1737.5487,86.9295
1738.5129,87.1325
1739.4772,87.437
1740.4414,87.8049
1741.4056,88.1677
1742.3699,88.4745
1743.3341,88.7218
1744.2983,88.9391
1745.2626,89.159
1746.2268,89.4042
1747.1910,89.6985
1748.1553,90.0782
1749.1195,90.5674
1750.0837,91.1181
1751.0480,91.6121
1752.0122,91.9617
1752.9764,92.175
1753.9407,92.3197
1754.9049,92.462
1755.8691,92.6343
1756.8334,92.835
1757.7976,93.0463
1758.7618,93.2568
1759.7261,93.4717
1760.6903,93.7029
1761.6545,93.949
1762.6188,94.1884
1763.5830,94.397
1764.5472,94.5704
1765.5115,94.7242
1766.4757,94.8751
1767.4399,95.0259
1768.4042,95.1668
1769.3684,95.2926
1770.3326,95.4261
1771.2969,95.6193
1772.2611,95.9024
1773.2253,96.2287
1774.1896,96.5143
1775.1538,96.726
1776.1180,96.8944
1777.0823,97.0675
1778.0465,97.2726
1779.0107,97.5084
1779.9750,97.756
1780.9392,97.9952
1781.9034,98.2162
1782.8677,98.4176
1783.8319,98.5957
1784.7961,98.7399
1785.7604,98.8413
1786.7246,98.9051
1787.6888,98.9513
1788.6531,98.9992
1789.6173,99.054
1790.5815,99.1116
1791.5458,99.1747
1792.5100,99.2466
1793.4742,99.3097
1794.4385,99.3428
1795.4027,99.3549
1796.3669,99.3752
1797.3312,99.4234
1798.2954,99.4992
1799.2596,99.5908
1800.2239,99.6857
1801.1881,99.7739
1802.1523,99.847
1803.1166,99.9004
1804.0808,99.936
1805.0450,99.9588
1806.0093,99.9726
1806.9735,99.9789
1807.9377,99.9801
1808.9020,99.9839
1809.8662,100.002
1810.8304,100.041
1811.7947,100.096
1812.7589,100.155
1813.7231,100.207
1814.6874,100.248
1815.6516,100.28
1816.6158,100.301
1817.5801,100.312
1818.5443,100.313
1819.5085,100.309
1820.4728,100.306
1821.4370,100.308
1822.4012,100.314
1823.3655,100.327
1824.3297,100.337
1825.2939,100.33
1826.2582,100.305
1827.2224,100.275
1828.1866,100.259
1829.1509,100.279
1830.1151,100.335
1831.0793,100.4
1832.0436,100.441
1833.0078,100.447
1833.9720,100.433
1834.9363,100.417
1835.9005,100.406
1836.8647,100.404
1837.8290,100.409
1838.7932,100.423
1839.7574,100.452
1840.7217,100.497
1841.6859,100.545
1842.6501,100.577
1843.6144,100.587
1844.5786,100.58
1845.5428,100.565
1846.5071,100.545
1847.4713,100.529
1848.4355,100.531
1849.3998,100.553
1850.3640,100.586
1851.3282,100.616
1852.2925,100.634
1853.2567,100.639
1854.2209,100.636
1855.1852,100.63
1856.1494,100.623
1857.1136,100.616
1858.0779,100.611
1859.0421,100.609
1860.0063,100.61
1860.9706,100.61
1861.9348,100.6
1862.8990,100.573
1863.8633,100.529
1864.8275,100.472
1865.7917,100.412
1866.7560,100.365
1867.7202,100.362
1868.6844,100.42
1869.6487,100.516
1870.6129,100.601
1871.5771,100.647
1872.5414,100.659
1873.5056,100.657
1874.4698,100.654
1875.4341,100.653
1876.3983,100.653
1877.3625,100.653
1878.3268,100.652
1879.2910,100.651
1880.2552,100.648
1881.2195,100.641
1882.1837,100.63
1883.1479,100.613
1884.1122,100.595
1885.0764,100.579
1886.0406,100.568
1887.0049,100.563
1887.9691,100.563
1888.9333,100.565
1889.8976,100.566
1890.8618,100.56
1891.8260,100.545
1892.7903,100.525
1893.7545,100.51
1894.7188,100.507
1895.6830,100.518
1896.6472,100.539
1897.6115,100.559
1898.5757,100.572
1899.5399,100.573
1900.5042,100.566
1901.4684,100.554
1902.4326,100.54
1903.3969,100.524
1904.3611,100.504
1905.3253,100.476
1906.2896,100.444
1907.2538,100.413
1908.2180,100.392
1909.1823,100.389
1910.1465,100.401
1911.1107,100.42
1912.0750,100.435
1913.0392,100.445
1914.0034,100.452
1914.9677,100.459
1915.9319,100.463
1916.8961,100.462
1917.8604,100.447
1918.8246,100.415
1919.7888,100.368
1920.7531,100.318
1921.7173,100.283
1922.6815,100.275
1923.6458,100.293
1924.6100,100.324
1925.5742,100.352
1926.5385,100.368
1927.5027,100.371
1928.4669,100.365
1929.4312,100.356
1930.3954,100.347
1931.3596,100.34
1932.3239,100.335
1933.2881,100.334
1934.2523,100.334
1935.2166,100.335
1936.1808,100.331
1937.1450,100.319
1938.1093,100.299
1939.0735,100.272
1940.0377,100.242
1941.0020,100.215
1941.9662,100.197
1942.9304,100.193
1943.8947,100.2
1944.8589,100.214
1945.8231,100.231
1946.7874,100.249
1947.7516,100.267
1948.7158,100.283
1949.6801,100.293
1950.6443,100.294
1951.6085,100.289
1952.5728,100.282
1953.5370,100.277
1954.5012,100.277
1955.4655,100.282
1956.4297,100.288
1957.3939,100.294
1958.3582,100.299
1959.3224,100.303
1960.2866,100.304
1961.2509,100.302
1962.2151,100.294
1963.1793,100.279
1964.1436,100.259
1965.1078,100.241
1966.0720,100.234
1967.0363,100.243
1968.0005,100.267
1968.9647,100.296
1969.9290,100.321
1970.8932,100.336
1971.8574,100.341
1972.8217,100.341
1973.7859,100.34
1974.7501,100.34
1975.7144,100.342
1976.6786,100.344
1977.6428,100.344
1978.6071,100.343
1979.5713,100.34
1980.5355,100.337
1981.4998,100.334
1982.4640,100.331
1983.4282,100.326
1984.3925,100.319
1985.3567,100.308
1986.3209,100.294
1987.2852,100.278
1988.2494,100.26
1989.2136,100.244
1990.1779,100.235
1991.1421,100.236
1992.1063,100.247
1993.0706,100.264
1994.0348,100.28
1994.9990,100.289
1995.9633,100.291
1996.9275,100.288
1997.8917,100.284
1998.8560,100.281
1999.8202,100.281
2000.7844,100.283
2001.7487,100.286
2002.7129,100.286
2003.6771,100.281
2004.6414,100.272
2005.6056,100.259
2006.5698,100.246
2007.5341,100.235
2008.4983,100.228
2009.4625,100.226
2010.4268,100.226
2011.3910,100.223
2012.3552,100.214
2013.3195,100.198
2014.2837,100.176
2015.2479,100.152
2016.2122,100.134
2017.1764,100.126
2018.1406,100.128
2019.1049,100.136
2020.0691,100.144
2021.0333,100.15
2021.9976,100.15
2022.9618,100.147
2023.9260,100.142
2024.8903,100.137
2025.8545,100.132
2026.8187,100.129
2027.7830,100.125
2028.7472,100.12
2029.7114,100.114
2030.6757,100.107
2031.6399,100.099
2032.6041,100.091
2033.5684,100.084
2034.5326,100.077
2035.4968,100.069
2036.4611,100.059
2037.4253,100.046
2038.3895,100.03
2039.3538,100.014
2040.3180,99.9995
2041.2822,99.9904
2042.2465,99.9866
2043.2107,99.9862
2044.1749,99.9862
2045.1392,99.9844
2046.1034,99.9797
2047.0676,99.9725
2048.0320,99.9636
2048.9961,99.9545
2049.9604,99.9464
2050.9246,99.9398
2051.8889,99.935
2052.8530,99.9309
2053.8174,99.9261
2054.7815,99.9195
2055.7458,99.9113
2056.7100,99.9025
2057.6743,99.8943
2058.6384,99.8868
2059.6028,99.8786
2060.5669,99.8677
2061.5313,99.8536
2062.4954,99.8382
2063.4597,99.8262
2064.4238,99.8218
2065.3882,99.8268
2066.3523,99.8388
2067.3167,99.8527
2068.2808,99.8635
2069.2451,99.8682
2070.2092,99.8674
2071.1736,99.8632
2072.1377,99.8585
2073.1021,99.8549
2074.0662,99.8524
2075.0305,99.8502
2075.9946,99.8471
2076.9590,99.8428
2077.9231,99.8377
2078.8875,99.833
2079.8516,99.8301
2080.8159,99.8295
2081.7800,99.8309
2082.7444,99.8328
2083.7085,99.8337
2084.6729,99.8329
2085.6370,99.8305
2086.6013,99.8272
2087.5654,99.8239
2088.5298,99.8209
2089.4939,99.818
2090.4583,99.8153
2091.4224,99.8131
2092.3867,99.812
2093.3508,99.8124
2094.3152,99.8143
2095.2793,99.8167
2096.2437,99.8187
2097.2078,99.8195
2098.1721,99.8184
2099.1362,99.8154
2100.1006,99.8099
2101.0647,99.8044
2102.0291,99.7989
2102.9932,99.7943
2103.9575,99.7911
2104.9216,99.7891
2105.8860,99.7873
2106.8501,99.7847
2107.8145,99.7805
2108.7786,99.7749
2109.7429,99.7685
2110.7070,99.762
2111.6714,99.7561
2112.6355,99.7514
2113.5999,99.7483
2114.5640,99.7475
2115.5283,99.7489
2116.4924,99.7519
2117.4568,99.7555
2118.4209,99.7579
2119.3853,99.758
2120.3494,99.755
2121.3137,99.7492
2122.2778,99.7415
2123.2422,99.7332
2124.2063,99.7257
2125.1707,99.7201
2126.1348,99.7175
2127.0991,99.7183
2128.0632,99.7222
2129.0276,99.7279
2129.9917,99.7332
2130.9561,99.7354
2131.9202,99.7329
2132.8845,99.7252
2133.8486,99.7139
2134.8130,99.7023
2135.7771,99.6941
2136.7415,99.6921
2137.7056,99.6968
2138.6699,99.7061
2139.6340,99.7168
2140.5984,99.7257
2141.5625,99.7311
2142.5269,99.7334
2143.4910,99.734
2144.4553,99.7348
2145.4194,99.7368
2146.3838,99.7401
2147.3479,99.7442
2148.3123,99.7481
2149.2764,99.7505
2150.2407,99.7505
2151.2048,99.7476
2152.1692,99.7422
2153.1333,99.7361
2154.0977,99.7315
2155.0618,99.7302
2156.0261,99.733
2156.9902,99.7387
2157.9546,99.7456
2158.9187,99.7519
2159.8831,99.7571
2160.8472,99.7617
2161.8115,99.7662
2162.7756,99.7707
2163.7400,99.7745
2164.7041,99.7762
2165.6685,99.7753
2166.6326,99.772
2167.5969,99.7677
2168.5610,99.764
2169.5254,99.7624
2170.4895,99.7636
2171.4539,99.7672
2172.4180,99.7724
2173.3823,99.7779
2174.3464,99.7825
2175.3108,99.7855
2176.2749,99.7867
2177.2393,99.7863
2178.2034,99.7847
2179.1677,99.7818
2180.1318,99.7775
2181.0962,99.7715
2182.0603,99.7645
2183.0247,99.758
2183.9888,99.7539
2184.9531,99.7541
2185.9172,99.7592
2186.8816,99.7679
2187.8457,99.7778
2188.8101,99.786
2189.7742,99.7906
2190.7385,99.7908
2191.7026,99.7874
2192.6670,99.7818
2193.6311,99.7758
2194.5955,99.7706
2195.5596,99.7667
2196.5239,99.7639
2197.4880,99.7618
2198.4524,99.7596
2199.4165,99.757
2200.3809,99.7542
2201.3450,99.7517
2202.3093,99.7498
2203.2734,99.7488
2204.2378,99.7482
2205.2019,99.7476
2206.1663,99.7463
2207.1304,99.7444
2208.0947,99.7418
2209.0588,99.7389
2210.0232,99.7357
2210.9873,99.732
2211.9517,99.7278
2212.9158,99.7234
2213.8801,99.7194
2214.8442,99.7166
2215.8086,99.7149
2216.7727,99.7135
2217.7371,99.7109
2218.7012,99.7058
2219.6655,99.6979
2220.6296,99.6883
2221.5940,99.679
2222.5581,99.6717
2223.5225,99.6672
2224.4866,99.6649
2225.4509,99.6626
2226.4150,99.658
2227.3794,99.65
2228.3435,99.6385
2229.3079,99.6245
2230.2720,99.6101
2231.2363,99.5973
2232.2004,99.5879
2233.1648,99.5825
2234.1289,99.5807
2235.0933,99.581
2236.0574,99.5812
2237.0217,99.5789
2237.9858,99.5725
2238.9502,99.5619
2239.9143,99.5483
2240.8787,99.5337
2241.8428,99.5194
2242.8071,99.5059
2243.7712,99.4928
2244.7356,99.4796
2245.6997,99.4665
2246.6641,99.4546
2247.6282,99.4448
2248.5925,99.4371
2249.5566,99.4305
2250.5210,99.4225
2251.4851,99.4114
2252.4495,99.3965
2253.4136,99.3785
2254.3779,99.3593
2255.3420,99.3406
2256.3064,99.3234
2257.2705,99.308
2258.2349,99.294
2259.1990,99.281
2260.1633,99.2684
2261.1274,99.2558
2262.0918,99.243
2263.0559,99.2302
2264.0203,99.2183
2264.9844,99.2084
2265.9487,99.2009
2266.9128,99.1952
2267.8772,99.1896
2268.8413,99.182
2269.8057,99.1716
2270.7698,99.159
2271.7341,99.1466
2272.6982,99.1367
2273.6626,99.1311
2274.6267,99.1297
2275.5911,99.1318
2276.5552,99.1364
2277.5195,99.143
2278.4836,99.1514
2279.4480,99.1609
2280.4121,99.1696
2281.3765,99.175
2282.3406,99.1739
2283.3049,99.1638
2284.2690,99.1437
2285.2334,99.1147
2286.1975,99.0794
2287.1619,99.0411
2288.1260,99.0026
2289.0903,98.965
2290.0544,98.9281
2291.0188,98.8917
2291.9829,98.857
2292.9473,98.8267
2293.9114,98.8043
2294.8757,98.7917
2295.8398,98.7885
2296.8042,98.7927
2297.7683,98.802
2298.7327,98.8167
2299.6968,98.8396
2300.6611,98.8737
2301.6252,98.9199
2302.5896,98.974
2303.5537,99.0272
2304.5181,99.0695
2305.4822,99.0943
2306.4465,99.103
2307.4106,99.1059
2308.3750,99.1184
2309.3391,99.1541
2310.3035,99.2175
2311.2676,99.3013
2312.2319,99.3901
2313.1960,99.4689
2314.1604,99.5314
2315.1245,99.5833
2316.0889,99.6377
2317.0530,99.7069
2318.0173,99.794
2318.9814,99.8872
2319.9458,99.9593
2320.9099,99.9749
2321.8743,99.9046
2322.8384,99.7426
2323.8027,99.5167
2324.7668,99.2814
2325.7312,99.0978
2326.6953,99.0085
2327.6597,99.0196
2328.6238,99.0966
2329.5881,99.1773
2330.5522,99.199
2331.5166,99.1296
2332.4807,98.9816
2333.4451,98.8007
2334.4092,98.6374
2335.3735,98.5215
2336.3376,98.4514
2337.3020,98.4005
2338.2661,98.3345
2339.2305,98.233
2340.1946,98.1092
2341.1589,98.0213
2342.1230,98.0613
2343.0874,98.2981
2344.0515,98.6403
2345.0159,98.8728
2345.9800,98.8601
2346.9443,98.6594
2347.9084,98.4368
2348.8728,98.3332
2349.8369,98.394
2350.8013,98.5615
2351.7654,98.7104
2352.7297,98.7239
2353.6938,98.5784
2354.6582,98.3496
2355.6223,98.1163
2356.5867,97.8921
2357.5508,97.6667
2358.5151,97.4687
2359.4792,97.354
2360.4436,97.3488
2361.4077,97.4328
2362.3721,97.5788
2363.3362,97.7841
2364.3005,98.0588
2365.2646,98.3954
2366.2290,98.7617
2367.1931,99.1196
2368.1575,99.4439
2369.1216,99.7262
2370.0859,99.9667
2371.0500,100.166
2372.0144,100.32
2372.9785,100.42
2373.9429,100.459
2374.9070,100.429
2375.8713,100.334
2376.8354,100.183
2377.7998,99.9956
2378.7639,99.7947
2379.7283,99.602
2380.6924,99.4348
2381.6567,99.3041
2382.6208,99.2136
2383.5852,99.1607
2384.5493,99.1381
2385.5137,99.136
2386.4778,99.1447
2387.4421,99.1563
2388.4063,99.1661
2389.3706,99.1724
2390.3347,99.1753
2391.2991,99.1765
2392.2632,99.1776
2393.2275,99.18
2394.1917,99.1848
2395.1560,99.1926
2396.1201,99.2032
2397.0845,99.2161
2398.0486,99.2296
2399.0129,99.2417
2399.9771,99.2504
2400.9414,99.2544
2401.9055,99.2539
2402.8699,99.2506
2403.8340,99.2477
2404.7983,99.248
2405.7625,99.2529
2406.7268,99.2612
2407.6909,99.2699
2408.6553,99.2759
2409.6194,99.2778
2410.5837,99.2764
2411.5479,99.2743
2412.5122,99.274
2413.4763,99.2762
2414.4407,99.2797
2415.4048,99.2828
2416.3691,99.2848
2417.3333,99.2864
2418.2976,99.2894
2419.2617,99.2946
2420.2261,99.301
2421.1902,99.3065
2422.1545,99.3088
2423.1187,99.308
2424.0830,99.3059
2425.0471,99.3058
2426.0115,99.3099
2426.9756,99.3182
2427.9399,99.3285
2428.9041,99.3381
2429.8684,99.345
2430.8325,99.3488
2431.7969,99.3505
2432.7610,99.3514
2433.7253,99.3526
2434.6895,99.3547
2435.6538,99.3578
2436.6179,99.3622
2437.5823,99.3676
2438.5464,99.3735
2439.5107,99.379
2440.4749,99.383
2441.4392,99.3851
2442.4033,99.3855
2443.3677,99.3851
2444.3318,99.3852
2445.2961,99.3867
2446.2603,99.3899
2447.2246,99.3942
2448.1887,99.3984
2449.1531,99.4016
2450.1172,99.4029
2451.0815,99.4024
2452.0457,99.4007
2453.0100,99.3986
2453.9741,99.3969
2454.9385,99.3955
2455.9026,99.3941
2456.8669,99.3921
2457.8311,99.3896
2458.7954,99.387
2459.7595,99.3856
2460.7239,99.3861
2461.6880,99.3888
2462.6523,99.3929
2463.6165,99.3973
2464.5808,99.4007
2465.5449,99.4021
2466.5093,99.401
2467.4734,99.3975
2468.4377,99.3922
2469.4019,99.3864
2470.3662,99.3818
2471.3303,99.3798
2472.2947,99.3816
2473.2588,99.3871
2474.2231,99.3953
2475.1873,99.404
2476.1516,99.4113
2477.1157,99.4157
2478.0801,99.4167
2479.0442,99.415
2480.0085,99.4119
2480.9727,99.4086
2481.9370,99.4061
2482.9011,99.405
2483.8655,99.4054
2484.8296,99.4072
2485.7939,99.4097
2486.7581,99.4124
2487.7224,99.4145
2488.6865,99.4157
2489.6509,99.4157
2490.6150,99.4145
2491.5793,99.4125
2492.5435,99.4102
2493.5078,99.4083
2494.4719,99.408
2495.4363,99.4099
2496.4004,99.4146
2497.3647,99.4212
2498.3289,99.4284
2499.2932,99.4342
2500.2573,99.4376
2501.2217,99.4388
2502.1858,99.439
2503.1501,99.4402
2504.1143,99.4435
2505.0786,99.4487
2506.0427,99.4542
2507.0071,99.4584
2507.9712,99.4597
2508.9355,99.458
2509.8997,99.4542
2510.8640,99.4497
2511.8281,99.4466
2512.7925,99.4467
2513.7566,99.4513
2514.7209,99.4605
2515.6851,99.4731
2516.6494,99.4866
2517.6135,99.498
2518.5779,99.5051
2519.5420,99.5073
2520.5063,99.506
2521.4705,99.5034
2522.4348,99.5016
2523.3989,99.5013
2524.3633,99.5026
2525.3274,99.5051
2526.2917,99.5085
2527.2559,99.5131
2528.2202,99.5186
2529.1843,99.5239
2530.1487,99.5273
2531.1128,99.5274
2532.0771,99.5242
2533.0413,99.5198
2534.0056,99.5171
2534.9697,99.5186
2535.9341,99.5249
2536.8982,99.5346
2537.8625,99.5452
2538.8267,99.5546
2539.7910,99.562
2540.7551,99.5679
2541.7195,99.5732
2542.6836,99.5789
2543.6479,99.585
2544.6121,99.591
2545.5764,99.596
2546.5405,99.5993
2547.5049,99.6007
2548.4690,99.6005
2549.4333,99.5992
2550.3975,99.5977
2551.3618,99.5967
2552.3259,99.5965
2553.2903,99.5974
2554.2544,99.5998
2555.2188,99.6045
2556.1829,99.6122
2557.1472,99.6233
2558.1113,99.637
2559.0757,99.6517
2560.0398,99.6648
2561.0042,99.6738
2561.9683,99.6772
2562.9326,99.6752
2563.8967,99.6699
2564.8611,99.6647
2565.8252,99.6629
2566.7896,99.6667
2567.7537,99.6755
2568.7180,99.6866
2569.6821,99.6963
2570.6465,99.7016
2571.6106,99.7016
2572.5750,99.6978
2573.5391,99.6928
2574.5034,99.689
2575.4675,99.6879
2576.4319,99.6896
2577.3960,99.6936
2578.3604,99.6995
2579.3245,99.7069
2580.2888,99.7152
2581.2529,99.7237
2582.2173,99.7312
2583.1814,99.7366
2584.1458,99.7392
2585.1099,99.7386
2586.0742,99.7351
2587.0383,99.7298
2588.0027,99.7237
2588.9668,99.7183
2589.9312,99.7146
2590.8953,99.713
2591.8596,99.7134
2592.8237,99.7152
2593.7881,99.7177
2594.7522,99.7204
2595.7166,99.7227
2596.6807,99.7244
2597.6450,99.7253
2598.6091,99.7261
2599.5735,99.7272
2600.5376,99.7292
2601.5020,99.7321
2602.4661,99.7351
2603.4304,99.7369
2604.3945,99.7372
2605.3589,99.7365
2606.3230,99.7362
2607.2874,99.7377
2608.2515,99.741
2609.2158,99.745
2610.1799,99.7483
2611.1443,99.7499
2612.1084,99.7503
2613.0728,99.7509
2614.0369,99.7527
2615.0012,99.7558
2615.9653,99.7591
2616.9297,99.7614
2617.8938,99.7617
2618.8582,99.7603
2619.8223,99.7581
2620.7866,99.7562
2621.7507,99.7556
2622.7151,99.7567
2623.6792,99.7594
2624.6436,99.763
2625.6077,99.7658
2626.5720,99.7663
2627.5361,99.7634
2628.5005,99.7577
2629.4646,99.7512
2630.4290,99.7469
2631.3931,99.7473
2632.3574,99.7531
2633.3215,99.7627
2634.2859,99.7737
2635.2500,99.7833
2636.2144,99.7899
2637.1785,99.7936
2638.1428,99.7955
2639.1069,99.7972
2640.0713,99.8
2641.0354,99.8047
2641.9998,99.8108
2642.9639,99.8171
2643.9282,99.8222
2644.8923,99.825
2645.8567,99.8255
2646.8208,99.8249
2647.7852,99.8246
2648.7493,99.8259
2649.7136,99.8286
2650.6777,99.8321
2651.6421,99.8351
2652.6062,99.8375
2653.5706,99.8402
2654.5347,99.8446
2655.4990,99.852
2656.4631,99.8621
2657.4275,99.8736
2658.3916,99.8841
2659.3560,99.8922
2660.3201,99.898
2661.2844,99.9035
2662.2485,99.9116
2663.2129,99.9244
2664.1770,99.9422
2665.1414,99.9629
2666.1055,99.9831
2667.0698,99.9992
2668.0339,100.01
2668.9983,100.014
2669.9624,100.016
2670.9268,100.019
2671.8909,100.026
2672.8552,100.039
2673.8193,100.057
2674.7837,100.077
2675.7478,100.097
2676.7122,100.112
2677.6763,100.119
2678.6406,100.119
2679.6047,100.114
2680.5691,100.106
2681.5332,100.1
2682.4976,100.099
2683.4617,100.103
2684.4260,100.112
2685.3901,100.122
2686.3545,100.129
2687.3186,100.131
2688.2830,100.129
2689.2471,100.123
2690.2114,100.119
2691.1755,100.119
2692.1399,100.125
2693.1040,100.136
2694.0684,100.149
2695.0325,100.16
2695.9968,100.166
2696.9609,100.167
2697.9253,100.164
2698.8894,100.16
2699.8538,100.158
2700.8179,100.157
2701.7822,100.156
2702.7463,100.153
2703.7107,100.148
2704.6748,100.139
2705.6392,100.128
2706.6033,100.114
2707.5676,100.1
2708.5317,100.088
2709.4961,100.078
2710.4602,100.071
2711.4246,100.068
2712.3887,100.064
2713.3530,100.059
2714.3171,100.049
2715.2815,100.036
2716.2456,100.021
2717.2100,100.007
2718.1741,99.9946
2719.1384,99.9863
2720.1025,99.9818
2721.0669,99.9804
2722.0310,99.9808
2722.9954,99.9811
2723.9595,99.9789
2724.9238,99.9717
2725.8879,99.9586
2726.8523,99.9404
2727.8164,99.9203
2728.7808,99.9025
2729.7449,99.8902
2730.7092,99.8841
2731.6733,99.8826
2732.6377,99.8823
2733.6018,99.8797
2734.5662,99.8726
2735.5303,99.8608
2736.4946,99.8458
2737.4587,99.8301
2738.4231,99.8163
2739.3872,99.806
2740.3516,99.7995
2741.3157,99.7962
2742.2800,99.7952
2743.2441,99.7957
2744.2085,99.7979
2745.1726,99.8013
2746.1370,99.8048
2747.1011,99.8064
2748.0654,99.8039
2749.0295,99.7966
2749.9939,99.7859
2750.9580,99.7754
2751.9224,99.7683
2752.8865,99.7659
2753.8508,99.7663
2754.8149,99.7654
2755.7793,99.7588
2756.7434,99.7441
2757.7078,99.7223
2758.6719,99.6969
2759.6362,99.6729
2760.6003,99.6538
2761.5647,99.6407
2762.5288,99.632
2763.4932,99.6246
2764.4573,99.6158
2765.4216,99.6049
2766.3857,99.5935
2767.3501,99.5841
2768.3142,99.5784
2769.2786,99.5752
2770.2427,99.5703
2771.2070,99.5588
2772.1711,99.5373
2773.1355,99.5069
2774.0996,99.4721
2775.0640,99.4393
2776.0281,99.4125
2776.9924,99.3918
2777.9565,99.373
2778.9209,99.3506
2779.8850,99.3207
2780.8494,99.2827
2781.8135,99.2403
2782.7778,99.1989
2783.7419,99.1628
2784.7063,99.1338
2785.6704,99.1097
2786.6348,99.0857
2787.5989,99.0566
2788.5632,99.0192
2789.5273,98.9738
2790.4917,98.9238
2791.4558,98.874
2792.4202,98.8285
2793.3843,98.788
2794.3486,98.7506
2795.3127,98.7124
2796.2771,98.67
2797.2412,98.6216
2798.2056,98.5677
2799.1697,98.5102
2800.1340,98.4508
2801.0981,98.3906
2802.0625,98.33
2803.0266,98.2691
2803.9910,98.2079
2804.9551,98.1466
2805.9194,98.085
2806.8835,98.0221
2807.8479,97.9566
2808.8120,97.8867
2809.7764,97.8111
2810.7405,97.7288
2811.7048,97.6395
2812.6689,97.5439
2813.6333,97.4435
2814.5974,97.3395
2815.5618,97.2329
2816.5259,97.1228
2817.4902,97.0068
2818.4543,96.8813
2819.4187,96.7433
2820.3828,96.5909
2821.3472,96.4243
2822.3113,96.2454
2823.2756,96.0566
2824.2397,95.8599
2825.2041,95.6558
2826.1682,95.4436
2827.1326,95.221
2828.0967,94.9855
2829.0610,94.7346
2830.0251,94.4676
2830.9895,94.186
2831.9536,93.8936
2832.9180,93.5957
2833.8821,93.297
2834.8464,93.0007
2835.8105,92.7081
2836.7749,92.4196
2837.7390,92.1357
2838.7034,91.8584
2839.6675,91.5903
2840.6318,91.3337
2841.5959,91.0887
2842.5603,90.8523
2843.5244,90.62
2844.4888,90.3879
2845.4529,90.1563
2846.4172,89.9304
2847.3813,89.719
2848.3457,89.5311
2849.3098,89.3704
2850.2742,89.2339
2851.2383,89.1123
2852.2026,88.9943
2853.1667,88.8716
2854.1311,88.741
2855.0952,88.6039
2856.0596,88.4634
2857.0237,88.3207
2857.9880,88.174
2858.9521,88.0196
2859.9165,87.8533
2860.8806,87.6735
2861.8450,87.4815
2862.8091,87.2817
2863.7734,87.0802
2864.7375,86.8834
2865.7019,86.6961
2866.6660,86.5199
2867.6304,86.3533
2868.5945,86.1926
2869.5588,86.0336
2870.5229,85.8744
2871.4873,85.7152
2872.4514,85.5583
2873.4158,85.4057
2874.3799,85.258
2875.3442,85.1139
2876.3083,84.971
2877.2727,84.8274
2878.2368,84.6829
2879.2012,84.5397
2880.1653,84.4026
2881.1296,84.2787
2882.0938,84.1757
2883.0581,84.1009
2884.0222,84.0583
2884.9866,84.047
2885.9507,84.0603
2886.9150,84.0866
2887.8792,84.1122
2888.8435,84.1268
2889.8076,84.1274
2890.7720,84.1196
2891.7361,84.1138
2892.7004,84.1171
2893.6646,84.1245
2894.6289,84.1167
2895.5930,84.068
2896.5574,83.9608
2897.5215,83.7993
2898.4858,83.6134
2899.4500,83.447
2900.4143,83.3391
2901.3784,83.3053
2902.3428,83.3324
2903.3069,83.3864
2904.2712,83.4297
2905.2354,83.4356
2906.1997,83.394
2907.1638,83.3087
2908.1282,83.1908
2909.0923,83.0529
2910.0566,82.9068
2911.0208,82.7622
2911.9851,82.6255
2912.9492,82.4986
2913.9136,82.379
2914.8777,82.2619
2915.8420,82.1428
2916.8062,82.0199
2917.7705,81.893
2918.7346,81.7629
2919.6990,81.6298
2920.6631,81.4944
2921.6274,81.3591
2922.5916,81.2277
2923.5559,81.1038
2924.5200,80.9887
2925.4844,80.8809
2926.4485,80.7777
2927.4128,80.6782
2928.3770,80.5846
2929.3413,80.5021
2930.3054,80.436
2931.2698,80.3902
2932.2339,80.3666
2933.1982,80.3662
2934.1624,80.3903
2935.1267,80.4405
2936.0908,80.5177
2937.0552,80.6215
2938.0193,80.7494
2938.9836,80.8985
2939.9478,81.0672
2940.9121,81.2561
2941.8762,81.4673
2942.8406,81.7023
2943.8047,81.9586
2944.7690,82.2284
2945.7332,82.4992
2946.6975,82.7576
2947.6616,82.9936
2948.6260,83.2035
2949.5901,83.3906
2950.5544,83.5618
2951.5186,83.7245
2952.4829,83.883
2953.4470,84.0384
2954.4114,84.1896
2955.3755,84.3361
2956.3398,84.479
2957.3040,84.621
2958.2683,84.7643
2959.2324,84.9087
2960.1968,85.0505
2961.1609,85.1838
2962.1252,85.3025
2963.0894,85.4036
2964.0537,85.4889
2965.0178,85.5642
2965.9822,85.6374
2966.9463,85.716
2967.9106,85.8059
2968.8748,85.9117
2969.8391,86.0377
2970.8032,86.1878
2971.7676,86.3642
2972.7317,86.5656
2973.6960,86.7867
2974.6602,87.0191
2975.6245,87.2541
2976.5886,87.4858
2977.5530,87.7115
2978.5171,87.932
2979.4814,88.149
2980.4456,88.3619
2981.4099,88.5649
2982.3740,88.7466
2983.3384,88.8947
2984.3025,89.0049
2985.2668,89.0902
2986.2310,89.1841
2987.1953,89.3315
2988.1594,89.5704
2989.1238,89.911
2990.0879,90.3275
2991.0522,90.7669
2992.0164,91.1723
2992.9807,91.507
2993.9448,91.7671
2994.9092,91.9763
2995.8733,92.1683
2996.8376,92.3691
2997.8018,92.5881
2998.7661,92.8212
2999.7302,93.0598
3000.6946,93.2988
3001.6587,93.5387
3002.6230,93.7841
3003.5872,94.039
3004.5515,94.3048
3005.5156,94.5784
3006.4800,94.8539
3007.4441,95.1238
3008.4084,95.3819
3009.3726,95.626
3010.3369,95.8591
3011.3010,96.0885
3012.2654,96.3213
3013.2295,96.5602
3014.1938,96.8012
3015.1580,97.0356
3016.1223,97.2551
3017.0864,97.4557
3018.0508,97.6393
3019.0149,97.8109
3019.9792,97.9752
3020.9434,98.1341
3021.9077,98.287
3022.8718,98.4326
3023.8362,98.5706
3024.8003,98.7021
3025.7646,98.8278
3026.7288,98.9471
3027.6931,99.0584
3028.6572,99.1605
3029.6216,99.2542
3030.5857,99.3426
3031.5500,99.4297
3032.5142,99.5182
3033.4785,99.6076
3034.4426,99.6949
3035.4070,99.7765
3036.3711,99.8492
3037.3354,99.9116
3038.2996,99.9636
3039.2639,100.006
3040.2280,100.038
3041.1924,100.033
3042.1565,100.014
3043.1208,99.9876
3044.0850,99.956
3045.0493,99.9223
3046.0134,99.8896
3046.9778,99.8596
3047.9419,99.8312
3048.9063,99.8008
3049.8704,99.7628
3050.8347,99.7132
3051.7988,99.6509
3052.7632,99.5792
3053.7273,99.5048
3054.6917,99.4349
3055.6558,99.3747
3056.6201,99.3253
3057.5842,99.2832
3058.5486,99.2416
3059.5127,99.193
3060.4771,99.1319
3061.4412,99.057
3062.4055,98.9718
3063.3696,98.8836
3064.3340,98.8008
3065.2981,98.7295
3066.2625,98.6707
3067.2266,98.6206
3068.1909,98.5735
3069.1550,98.5247
3070.1194,98.4725
3071.0835,98.4175
3072.0479,98.3604
3073.0120,98.3002
3073.9763,98.2338
3074.9404,98.1584
3075.9048,98.0736
3076.8689,97.9834
3077.8333,97.8951
3078.7974,97.8162
3079.7617,97.7507
3080.7258,97.6973
3081.6902,97.65
3082.6543,97.6015
3083.6187,97.5465
3084.5828,97.4838
3085.5471,97.4159
3086.5112,97.3464
3087.4756,97.2779
3088.4397,97.2105
3089.4041,97.1416
3090.3682,97.0683
3091.3325,96.989
3092.2966,96.9038
3093.2610,96.8142
3094.2251,96.7218
3095.1895,96.6274
3096.1536,96.5313
3097.1179,96.434
3098.0820,96.3376
3099.0464,96.2452
3100.0105,96.1596
3100.9749,96.0819
3101.9390,96.0107
3102.9033,95.9426
3103.8674,95.8742
3104.8318,95.803
3105.7959,95.7274
3106.7603,95.6466
3107.7244,95.5596
3108.6887,95.4656
3109.6528,95.365
3110.6172,95.2599
3111.5813,95.154
3112.5457,95.051
3113.5098,94.9529
3114.4741,94.8589
3115.4382,94.7661
3116.4026,94.6713
3117.3667,94.5733
3118.3311,94.4735
3119.2952,94.3751
3120.2595,94.2812
3121.2236,94.193
3122.1880,94.1098
3123.1521,94.03
3124.1165,93.9521
3125.0806,93.8747
3126.0449,93.7963
3127.0090,93.7136
3127.9734,93.6229
3128.9375,93.5216
3129.9019,93.4105
3130.8660,93.2954
3131.8303,93.1843
3132.7944,93.0843
3133.7588,92.9974
3134.7229,92.9202
3135.6873,92.8451
3136.6514,92.7651
3137.6157,92.6762
3138.5798,92.5789
3139.5442,92.4764
3140.5083,92.372
3141.4727,92.2679
3142.4368,92.1645
3143.4011,92.061
3144.3652,91.9569
3145.3296,91.8525
3146.2937,91.7495
3147.2581,91.6501
3148.2222,91.5559
3149.1865,91.4667
3150.1506,91.3798
3151.1150,91.291
3152.0791,91.1959
3153.0435,91.0922
3154.0076,90.9805
3154.9719,90.8639
3155.9360,90.7461
3156.9004,90.6301
3157.8645,90.517
3158.8289,90.4069
3159.7930,90.2996
3160.7573,90.1948
3161.7214,90.0922
3162.6858,89.9908
3163.6499,89.8891
3164.6143,89.7859
3165.5784,89.6814
3166.5427,89.5771
3167.5068,89.4753
3168.4712,89.377
3169.4353,89.3249
3170.3997,89.2265
3171.3638,89.1208
3172.3281,89.0047
3173.2922,88.8783
3174.2566,88.7458
3175.2207,88.6132
3176.1851,88.4869
3177.1492,88.3715
3178.1135,88.2674
3179.0776,88.172
3180.0420,88.0803
3181.0061,87.9882
3181.9705,87.8938
3182.9346,87.7984
3183.8989,87.7046
3184.8630,87.6134
3185.8274,87.523
3186.7915,87.4289
3187.7559,87.3271
3188.7200,87.2171
3189.6843,87.1029
3190.6484,86.9912
3191.6128,86.8866
3192.5769,86.7891
3193.5413,86.6939
3194.5054,86.5947
3195.4697,86.4882
3196.4338,86.3758
3197.3982,86.2629
3198.3623,86.1552
3199.3267,86.0552
3200.2908,85.962
3201.2551,85.8721
3202.2192,85.7815
3203.1836,85.6877
3204.1477,85.5894
3205.1121,85.4873
3206.0762,85.3835
3207.0405,85.2808
3208.0046,85.1817
3208.9690,85.0867
3209.9331,84.9937
3210.8975,84.899
3211.8616,84.8003
3212.8259,84.6991
3213.7900,84.6003
3214.7544,84.5099
3215.7185,84.4306
3216.6829,84.3593
3217.6470,84.2887
3218.6113,84.211
3219.5754,84.1223
3220.5398,84.0246
3221.5039,83.9239
3222.4683,83.8262
3223.4324,83.7348
3224.3967,83.6491
3225.3608,83.5659
3226.3252,83.4827
3227.2893,83.3987
3228.2537,83.3158
3229.2178,83.2368
3230.1821,83.1635
3231.1462,83.095
3232.1106,83.0281
3233.0747,82.9589
3234.0391,82.8846
3235.0032,82.8057
3235.9675,82.7251
3236.9316,82.6462
3237.8960,82.5704
3238.8601,82.496
3239.8245,82.4197
3240.7886,82.3394
3241.7529,82.2564
3242.7170,82.1751
3243.6814,82.1012
3244.6455,82.0375
3245.6099,81.9821
3246.5740,81.9289
3247.5383,81.8713
3248.5024,81.8051
3249.4668,81.7299
3250.4309,81.6488
3251.3953,81.5661
3252.3594,81.4862
3253.3237,81.4122
3254.2878,81.3455
3255.2522,81.2859
3256.2163,81.232
3257.1807,81.1815
3258.1448,81.1318
3259.1091,81.0808
3260.0732,81.0266
3261.0376,80.9683
3262.0017,80.9054
3262.9661,80.8386
3263.9302,80.7693
3264.8945,80.6997
3265.8586,80.6316
3266.8230,80.5657
3267.7871,80.5011
3268.7515,80.4364
3269.7156,80.3707
3270.6799,80.3052
3271.6440,80.2427
3272.6084,80.1866
3273.5725,80.1384
3274.5369,80.0974
3275.5010,80.0604
3276.4653,80.0243
3277.4294,79.9873
3278.3938,79.9492
3279.3579,79.9108
3280.3223,79.8723
3281.2864,79.8325
3282.2507,79.7899
3283.2148,79.7429
3284.1792,79.6911
3285.1433,79.6351
3286.1077,79.5758
3287.0718,79.5141
3288.0361,79.4509
3289.0002,79.3878
3289.9646,79.3275
3290.9287,79.2736
3291.8931,79.2291
3292.8572,79.1951
3293.8215,79.1694
3294.7856,79.1468
3295.7500,79.1202
3296.7141,79.0838
3297.6785,79.0349
3298.6426,78.9756
3299.6069,78.912
3300.5710,78.8518
3301.5354,78.801
3302.4995,78.7614
3303.4639,78.7307
3304.4280,78.7046
3305.3923,78.6792
3306.3564,78.6532
3307.3208,78.6276
3308.2849,78.6039
3309.2493,78.5824
3310.2134,78.5615
3311.1777,78.539
3312.1418,78.5133
3313.1062,78.4848
3314.0703,78.4554
3315.0347,78.427
3315.9988,78.4006
3316.9631,78.3759
3317.9272,78.3522
3318.8916,78.3293
3319.8557,78.3072
3320.8201,78.2852
3321.7842,78.2611
3322.7485,78.232
3323.7126,78.1961
3324.6770,78.1549
3325.6411,78.1132
3326.6055,78.0774
3327.5696,78.0512
3328.5339,78.0336
3329.4980,78.0186
3330.4624,77.9996
3331.4265,77.9733
3332.3909,77.9419
3333.3550,77.912
3334.3193,77.8897
3335.2834,77.8767
3336.2478,77.8687
3337.2119,77.8581
3338.1763,77.8397
3339.1404,77.8137
3340.1047,77.7861
3341.0688,77.7641
3342.0332,77.7519
3342.9973,77.7484
3343.9617,77.7484
3344.9258,77.7471
3345.8901,77.7434
3346.8542,77.7396
3347.8186,77.7397
3348.7827,77.7446
3349.7471,77.7515
3350.7112,77.7549
3351.6755,77.75
3352.6396,77.7358
3353.6040,77.7161
3354.5681,77.6971
3355.5325,77.685
3356.4966,77.6828
3357.4609,77.6893
3358.4250,77.6994
3359.3894,77.7058
3360.3535,77.702
3361.3179,77.6849
3362.2820,77.6574
3363.2463,77.6285
3364.2104,77.6096
3365.1748,77.61
3366.1389,77.6322
3367.1033,77.6704
3368.0674,77.7136
3369.0317,77.7516
3369.9958,77.7789
3370.9602,77.7956
3371.9243,77.8047
3372.8887,77.8096
3373.8528,77.8122
3374.8171,77.8142
3375.7813,77.818
3376.7456,77.8274
3377.7097,77.8457
3378.6741,77.8729
3379.6382,77.9061
3380.6025,77.9398
3381.5667,77.9697
3382.5310,77.9939
3383.4951,78.013
3384.4595,78.0284
3385.4236,78.041
3386.3879,78.0509
3387.3521,78.0593
3388.3164,78.0688
3389.2805,78.0837
3390.2449,78.1071
3391.2090,78.1396
3392.1733,78.1789
3393.1375,78.2217
3394.1018,78.2666
3395.0659,78.3146
3396.0303,78.3671
3396.9944,78.4228
3397.9587,78.4763
3398.9229,78.5201
3399.8872,78.5499
3400.8513,78.5678
3401.8157,78.5822
3402.7798,78.6034
3403.7441,78.6381
3404.7083,78.6868
3405.6726,78.7442
3406.6367,78.8036
3407.6011,78.8601
3408.5652,78.9123
3409.5295,78.9614
3410.4937,79.0093
3411.4580,79.0571
3412.4221,79.1047
3413.3865,79.1518
3414.3506,79.1982
3415.3149,79.2443
3416.2791,79.2906
3417.2434,79.3386
3418.2075,79.3904
3419.1719,79.4489
3420.1360,79.516
3421.1003,79.5914
3422.0645,79.6718
3423.0288,79.7527
3423.9929,79.8304
3424.9573,79.9034
3425.9214,79.9723
3426.8857,80.0393
3427.8499,80.1066
3428.8142,80.1756
3429.7783,80.2468
3430.7427,80.3197
3431.7068,80.3934
3432.6711,80.467
3433.6353,80.5396
3434.5996,80.6099
3435.5637,80.6771
3436.5281,80.7417
3437.4922,80.8059
3438.4565,80.8725
3439.4207,80.943
3440.3850,81.0157
3441.3491,81.0861
3442.3135,81.1501
3443.2776,81.2073
3444.2419,81.2635
3445.2061,81.329
3446.1704,81.4128
3447.1345,81.5168
3448.0989,81.634
3449.0630,81.7529
3450.0273,81.8647
3450.9915,81.9659
3451.9558,82.0577
3452.9199,82.1423
3453.8843,82.2207
3454.8484,82.293
3455.8127,82.3594
3456.7769,82.4218
3457.7412,82.4837
3458.7053,82.5489
3459.6697,82.6202
3460.6338,82.6995
3461.5981,82.7866
3462.5623,82.881
3463.5266,82.9816
3464.4907,83.0871
3465.4551,83.1957
3466.4192,83.3045
3467.3835,83.4095
3468.3477,83.5059
3469.3120,83.5909
3470.2761,83.6653
3471.2405,83.7342
3472.2046,83.8056
3473.1689,83.8857
3474.1331,83.9759
3475.0974,84.0709
3476.0615,84.1629
3477.0259,84.2468
3477.9900,84.3244
3478.9543,84.4037
3479.9185,84.4941
3480.8828,84.6004
3481.8469,84.7191
3482.8113,84.8403
3483.7754,84.9546
3484.7397,85.0586
3485.7039,85.1558
3486.6682,85.2531
3487.6323,85.3559
3488.5967,85.4651
3489.5608,85.5769
3490.5251,85.6856
3491.4893,85.7881
3492.4536,85.8855
3493.4177,85.9828
3494.3821,86.0852
3495.3462,86.1931
3496.3105,86.3003
3497.2747,86.3968
3498.2390,86.4762
3499.2031,86.5418
3500.1675,86.608
3501.1316,86.6955
3502.0959,86.8196
3503.0601,86.9778
3504.0244,87.1481
3504.9885,87.3048
3505.9529,87.4347
3506.9170,87.5427
3507.8813,87.6449
3508.8455,87.7583
3509.8098,87.8915
3510.7739,88.0405
3511.7383,88.1927
3512.7024,88.3375
3513.6667,88.4707
3514.6309,88.5943
3515.5952,88.7113
3516.5593,88.8231
3517.5237,88.9296
3518.4878,89.0303
3519.4521,89.1267
3520.4163,89.2223
3521.3806,89.321
3522.3447,89.4258
3523.3091,89.5373
3524.2732,89.6552
3525.2375,89.7804
3526.2017,89.9163
3527.1660,90.0663
3528.1301,90.2289
3529.0945,90.3955
3530.0586,90.5538
3531.0229,90.6961
3531.9871,90.8235
3532.9514,90.9451
3533.9155,91.0733
3534.8799,91.2173
3535.8440,91.3786
3536.8083,91.5479
3537.7725,91.7079
3538.7368,91.842
3539.7009,91.942
3540.6653,92.0117
3541.6294,92.0656
3542.5938,92.1264
3543.5579,92.2214
3544.5222,92.3692
3545.4863,92.5638
3546.4507,92.7726
3547.4148,92.9592
3548.3792,93.1099
3549.3433,93.2368
3550.3076,93.3637
3551.2717,93.5099
3552.2361,93.6789
3553.2002,93.8567
3554.1646,94.0234
3555.1287,94.1673
3556.0930,94.2905
3557.0571,94.4015
3558.0215,94.5063
3558.9856,94.6035
3559.9500,94.6876
3560.9141,94.7547
3561.8784,94.8076
3562.8425,94.8547
3563.8069,94.9082
3564.7710,94.9916
3565.7354,95.1446
3566.6995,95.3896
3567.6638,95.6795
3568.6279,95.9263
3569.5923,96.088
3570.5564,96.1868
3571.5208,96.2643
3572.4849,96.3466
3573.4492,96.4395
3574.4133,96.5374
3575.3777,96.635
3576.3418,96.7307
3577.3062,96.8251
3578.2703,96.9166
3579.2346,97.0002
3580.1987,97.0712
3581.1631,97.1313
3582.1272,97.19
3583.0916,97.2592
3584.0557,97.3457
3585.0200,97.4516
3585.9841,97.5819
3586.9485,97.7355
3587.9126,97.8793
3588.8770,97.9636
3589.8411,97.9747
3590.8054,97.9441
3591.7695,97.9131
3592.7339,97.9069
3593.6980,97.9317
3594.6624,97.9804
3595.6265,98.0382
3596.5908,98.0944
3597.5549,98.1527
3598.5193,98.2286
3599.4834,98.3343
3600.4478,98.4645
3601.4119,98.5973
3602.3762,98.7121
3603.3403,98.8058
3604.3047,98.8904
3605.2688,98.9813
3606.2332,99.0895
3607.1973,99.2166
3608.1616,99.3482
3609.1257,99.4567
3610.0901,99.5195
3611.0542,99.5359
3612.0186,99.5254
3612.9829,99.5134
3613.9470,99.5173
3614.9114,99.5423
3615.8755,99.5851
3616.8398,99.641
3617.8040,99.7089
3618.7683,99.7849
3619.7324,99.8456
3620.6968,99.854
3621.6609,99.8015
3622.6252,99.7274
3623.5894,99.6895
3624.5537,99.7229
3625.5178,99.8199
3626.4822,99.9418
3627.4463,100.062
3628.4106,100.184
3629.3748,100.283
3630.3391,100.306
3631.3032,100.256
3632.2676,100.194
3633.2317,100.174
3634.1960,100.197
3635.1602,100.244
3636.1245,100.287
3637.0886,100.305
3638.0530,100.293
3639.0171,100.262
3639.9814,100.221
3640.9456,100.177
3641.9099,100.138
3642.8740,100.115
3643.8384,100.113
3644.8025,100.118
3645.7668,100.087
3646.7310,99.9793
3647.6953,99.8568
3648.6594,99.8931
3649.6238,100.1
3650.5879,100.263
3651.5522,100.27
3652.5164,100.183
3653.4807,100.09
3654.4448,100.03
3655.4092,99.9961
3656.3733,99.9644
3657.3376,99.9157
3658.3018,99.85
3659.2661,99.7875
3660.2302,99.7509
3661.1946,99.7456
3662.1587,99.7586
3663.1230,99.7734
3664.0872,99.7866
3665.0515,99.8043
3666.0156,99.8244
3666.9800,99.8244
3667.9441,99.7811
3668.9084,99.7074
3669.8726,99.647
3670.8369,99.6222
3671.8010,99.6211
3672.7654,99.6215
3673.7295,99.6068
3674.6938,99.5898
3675.6580,99.6094
3676.6223,99.6656
3677.5864,99.7106
3678.5508,99.7219
3679.5149,99.7143
3680.4792,99.7
3681.4434,99.6755
3682.4077,99.6377
3683.3718,99.5992
3684.3362,99.5803
3685.3003,99.5846
3686.2646,99.5825
3687.2288,99.5329
3688.1931,99.4427
3689.1572,99.386
3690.1216,99.4109
3691.0857,99.4827
3692.0500,99.5545
3693.0142,99.6147
3693.9785,99.6684
3694.9426,99.7179
3695.9070,99.7636
3696.8711,99.8084
3697.8354,99.8575
3698.7996,99.9151
3699.7639,99.9814
3700.7280,100.053
3701.6924,100.122
3702.6565,100.171
3703.6208,100.187
3704.5850,100.175
3705.5493,100.151
3706.5134,100.127
3707.4778,100.1
3708.4419,100.068
3709.4063,100.073
3710.3704,100.193
3711.3347,100.436
3712.2988,100.681
3713.2632,100.802
3714.2273,100.787
3715.1917,100.695
3716.1558,100.586
3717.1201,100.488
3718.0842,100.402
3719.0486,100.319
3720.0127,100.232
3720.9771,100.144
3721.9412,100.066
3722.9055,100.011
3723.8696,99.9871
3724.8340,99.9906
3725.7981,100.005
3726.7625,100.013
3727.7266,100.011
3728.6909,100.008
3729.6550,100.006
3730.6194,99.9956
3731.5835,99.953
3732.5479,99.8739
3733.5120,99.808
3734.4763,99.8371
3735.4404,99.9638
3736.4048,100.077
3737.3689,100.095
3738.3333,100.056
3739.2974,100.055
3740.2617,100.161
3741.2258,100.369
3742.1902,100.598
3743.1543,100.724
3744.1187,100.672
3745.0828,100.487
3746.0471,100.227
3747.0112,99.9889
3747.9756,99.831
3748.9397,99.778
3749.9041,99.8466
3750.8682,100.015
3751.8325,100.165
3752.7966,100.181
3753.7610,100.075
3754.7251,99.9326
3755.6895,99.8226
3756.6536,99.7698
3757.6179,99.7743
3758.5820,99.8237
3759.5464,99.8906
3760.5105,99.944
3761.4749,99.9711
3762.4390,99.9805
3763.4033,99.9855
3764.3674,99.9926
3765.3318,99.9999
3766.2959,100.002
3767.2603,99.9984
3768.2244,99.9942
3769.1887,100
3770.1528,100.019
3771.1172,100.042
3772.0813,100.051
3773.0457,100.046
3774.0098,100.035
3774.9741,100.027
3775.9382,100.023
3776.9026,100.014
3777.8667,100.002
3778.8311,99.9898
3779.7952,99.9746
3780.7595,99.9492
3781.7236,99.9139
3782.6880,99.8803
3783.6521,99.8639
3784.6165,99.8751
3785.5806,99.913
3786.5449,99.9651
3787.5090,100.015
3788.4734,100.051
3789.4375,100.073
3790.4019,100.083
3791.3660,100.083
3792.3303,100.066
3793.2944,100.024
3794.2588,99.9529
3795.2229,99.8696
3796.1873,99.8016
3797.1514,99.7697
3798.1157,99.7714
3799.0798,99.7841
3800.0442,99.7868
3801.0083,99.7786
3801.9727,99.7708
3802.9368,99.7748
3803.9011,99.8054
3804.8652,99.8757
3805.8296,99.9778
3806.7937,100.076
3807.7581,100.12
3808.7222,100.089
3809.6865,100.014
3810.6506,99.9549
3811.6150,99.9547
3812.5791,100.003
3813.5435,100.046
3814.5076,100.028
3815.4719,99.94
3816.4360,99.8147
3817.4004,99.7005
3818.3645,99.6345
3819.3289,99.637
3820.2930,99.7038
3821.2573,99.791
3822.2214,99.8329
3823.1858,99.8001
3824.1499,99.7228
3825.1143,99.6544
3826.0784,99.6319
3827.0427,99.6614
3828.0068,99.7248
3828.9712,99.7937
3829.9353,99.8453
3830.8997,99.8713
3831.8638,99.8778
3832.8281,99.8766
3833.7922,99.8738
3834.7566,99.8617
3835.7207,99.8238
3836.6851,99.7533
3837.6492,99.6711
3838.6135,99.6134
3839.5776,99.6023
3840.5420,99.6365
3841.5061,99.7044
3842.4705,99.7877
3843.4346,99.8576
3844.3989,99.8827
3845.3630,99.8507
3846.3274,99.7849
3847.2915,99.7373
3848.2559,99.7625
3849.2200,99.8849
3850.1843,100.077
3851.1484,100.268
3852.1128,100.414
3853.0769,100.528
3854.0413,100.562
3855.0054,100.429
3855.9697,100.176
3856.9338,99.9362
3857.8982,99.7974
3858.8623,99.7718
3859.8267,99.8118
3860.7908,99.8491
3861.7551,99.8403
3862.7192,99.797
3863.6836,99.7676
3864.6477,99.7853
3865.6121,99.8445
3866.5762,99.9159
3867.5405,99.9659
3868.5046,99.9717
3869.4690,99.9365
3870.4331,99.8897
3871.3975,99.8618
3872.3616,99.8602
3873.3259,99.8728
3874.2900,99.8884
3875.2544,99.9047
3876.2185,99.9209
3877.1829,99.9292
3878.1470,99.9168
3879.1113,99.8796
3880.0754,99.8348
3881.0398,99.8137
3882.0039,99.8404
3882.9683,99.916
3883.9324,100.017
3884.8967,100.106
3885.8608,100.146
3886.8252,100.126
3887.7893,100.062
3888.7537,99.9831
3889.7178,99.9109
3890.6821,99.8611
3891.6462,99.8405
3892.6106,99.8404
3893.5747,99.8452
3894.5391,99.8536
3895.5032,99.8751
3896.4675,99.9088
3897.4316,99.9363
3898.3960,99.9386
3899.3601,99.9147
3900.3245,99.8807
3901.2886,99.854
3902.2529,99.8453
3903.2170,99.8576
3904.1814,99.8821
3905.1455,99.9019
3906.1099,99.9075
3907.0740,99.904
3908.0383,99.9021
3909.0024,99.9058
3909.9668,99.9111
3910.9309,99.9123
3911.8953,99.9077
3912.8594,99.9006
3913.8237,99.8954
3914.7878,99.8939
3915.7522,99.8969
3916.7163,99.9042
3917.6807,99.9117
3918.6448,99.9096
3919.6091,99.89
3920.5732,99.8555
3921.5376,99.8162
3922.5017,99.7825
3923.4661,99.7595
3924.4302,99.7448
3925.3945,99.7291
3926.3586,99.7042
3927.3230,99.6703
3928.2871,99.6362
3929.2515,99.6154
3930.2156,99.6224
3931.1799,99.6666
3932.1440,99.741
3933.1084,99.8217
3934.0725,99.8831
3935.0369,99.9136
3936.0010,99.9154
3936.9653,99.8965
3937.9294,99.8631
3938.8938,99.8197
3939.8579,99.7729
3940.8223,99.7339
3941.7864,99.7156
3942.7507,99.724
3943.7148,99.7516
3944.6792,99.7823
3945.6433,99.8011
3946.6077,99.8004
3947.5718,99.783
3948.5361,99.7598
3949.5002,99.7433
3950.4646,99.7395
3951.4287,99.7461
3952.3931,99.7571
3953.3572,99.767
3954.3215,99.7724
3955.2856,99.7719
3956.2500,99.766
3957.2141,99.7572
3958.1785,99.7495
3959.1426,99.7469
3960.1069,99.7522
3961.0710,99.7648
3962.0354,99.7806
3962.9995,99.7934
3963.9639,99.7985
3964.9280,99.7946
3965.8923,99.7837
3966.8564,99.7693
3967.8208,99.7549
3968.7849,99.7427
3969.7493,99.7342
3970.7134,99.7306
3971.6777,99.7321
3972.6418,99.7374
3973.6062,99.7435
3974.5703,99.7466
3975.5347,99.744
3976.4988,99.7357
3977.4631,99.7239
3978.4272,99.712
3979.3916,99.7027
3980.3557,99.6972
3981.3201,99.6957
3982.2842,99.6976
3983.2485,99.7019
3984.2126,99.7074
3985.1770,99.7125
3986.1411,99.7154
3987.1055,99.714
3988.0696,99.706
3989.0339,99.6894
3989.9980,99.664
3990.9624,99.6333
3991.9265,99.6043
3992.8909,99.5863
3993.8550,99.586
3994.8193,99.6037
3995.7834,99.632
3996.7478,99.6592
3997.7119,99.675
3998.6763,99.6775
3999.6404,99.67
4000.6047,99.5066

##### Extended Information
[Comments]
Sample name
Comment
User
Division
Company,HANKYONG

[Detailed Information]
Creation date,4/24/2024 11:02 AM

Data array type,Linear data array
Horizontal axis,Wavenumber [cm-1]
Vertical axis,%T
Start,649.893 cm-1
End,4000.6 cm-1
Data interval,0.964233 cm-1
Data points,3476    

[Measurement Information]
Model Name,FT/IR-4700typeA
Serial Number,D056761788

Accessory,ATR PRO ONE
Accessory S/N,C174761809
Incident angle,45 deg

Measurement Date,4/24/2024 11:01 AM

Light Source,Standard
Detector,TGS
Accumulation,32
Resolution,4 cm-1
Zero Filling,On
Apodization,Cosine
Gain,Auto (4)
Aperture,Auto (7.1 mm)
Scanning Speed,Auto (2 mm/sec)
Filter,Auto (30000 Hz)

