TITLE,
DATA TYPE,INFRARED SPECTRUM
ORIGIN,JASCO
OWNER,
DATE,24/04/24
TIME,10:43:47
SPECTROMETER/DATA SYSTEM,
LOCALE,1033
RESOLUTION,
DELTAX,0.964233
XUNITS,1/CM
YUNITS,TRANSMITTANCE
FIRSTX,  649.8934
LASTX, 4000.6047
NPOINTS,    3476
FIRSTY,   100.08891
MAXY,   101.12074
MINY,    59.14215
XYDATA
649.8934,100.089
650.8576,100.02
651.8218,99.9659
652.7861,99.9416
653.7503,99.9597
654.7145,100.02
655.6788,100.103
656.6430,100.178
657.6072,100.216
658.5715,100.206
659.5357,100.167
660.4999,100.043
661.4642,99.935
662.4284,99.8567
663.3926,99.7712
664.3569,99.6254
665.3211,99.3644
666.2853,98.953
667.2496,98.4361
668.2138,98.0126
669.1780,97.9084
670.1423,98.0979
671.1065,98.3844
672.0707,98.6369
673.0350,98.8202
673.9992,98.9373
674.9634,98.9934
675.9277,98.9884
676.8919,98.9255
677.8561,98.8253
678.8204,98.7277
679.7846,98.6798
680.7488,98.7152
681.7131,98.8369
682.6773,99.0151
683.6415,99.2043
684.6058,99.3676
685.5700,99.49
686.5342,99.5743
687.4985,99.6271
688.4627,99.6483
689.4269,99.6287
690.3912,99.5606
691.3554,99.4535
692.3196,99.3471
693.2839,99.3016
694.2481,99.354
695.2123,99.4844
696.1766,99.6387
697.1408,99.7656
698.1050,99.8323
699.0693,99.8258
700.0335,99.7512
700.9977,99.626
701.9620,99.4736
702.9262,99.318
703.8904,99.1814
704.8547,99.0818
705.8189,99.0275
706.7831,99.0125
707.7474,99.0155
708.7116,99.005
709.6758,98.9507
710.6401,98.8336
711.6043,98.6511
712.5685,98.4156
713.5328,98.1461
714.4970,97.8589
715.4612,97.6562
716.4255,97.3582
717.3897,97.0844
718.3539,96.8706
719.3182,96.7605
720.2824,96.7839
721.2466,96.9339
722.2109,97.1615
723.1751,97.3952
724.1393,97.5696
725.1036,97.6477
726.0678,97.6276
727.0320,97.5374
727.9963,97.4198
728.9605,97.3123
729.9247,97.2333
730.8890,97.1778
731.8532,97.1239
732.8174,97.0433
733.7817,96.9094
734.7459,96.7017
735.7101,96.4069
736.6744,96.0192
737.6386,95.5421
738.6028,94.9903
739.5671,94.3895
740.5313,93.7732
741.4955,93.1771
742.4598,92.6333
743.4240,92.1663
744.3882,91.7925
745.3525,91.52
746.3167,91.3485
747.2809,91.2691
748.2452,91.2633
749.2094,91.3058
750.1736,91.3691
751.1379,91.432
752.1021,91.4853
753.0663,91.5341
754.0306,91.5922
754.9948,91.6709
755.9590,91.7692
756.9233,91.8691
757.8875,91.9418
758.8517,91.9604
759.8160,91.9144
760.7802,91.816
761.7444,91.6967
762.7087,91.5945
763.6729,91.5411
764.6371,91.5539
765.6014,91.6366
766.5656,91.7844
767.5298,91.9891
768.4941,92.2412
769.4583,92.5279
770.4225,92.8317
771.3868,93.1308
772.3510,93.4024
773.3152,93.6268
774.2795,93.7906
775.2437,93.8884
776.2079,93.922
777.1722,93.8999
778.1364,93.8337
779.1006,93.7351
780.0649,93.6119
781.0291,93.4677
781.9933,93.3039
782.9576,93.1242
783.9218,92.9371
784.8860,92.7551
785.8503,92.5894
786.8145,92.4445
787.7787,92.3172
788.7430,92.2001
789.7072,92.088
790.6714,91.9816
791.6357,91.8864
792.5999,91.8065
793.5641,91.739
794.5284,91.6725
795.4926,91.5907
796.4568,91.4801
797.4211,91.3359
798.3853,91.1628
799.3495,90.9723
800.3138,90.7766
801.2780,90.5832
802.2422,90.3924
803.2065,90.1981
804.1707,89.9917
805.1349,89.7668
806.0992,89.5235
807.0634,89.27
808.0276,89.0194
808.9919,88.7843
809.9561,88.5708
810.9203,88.3774
811.8846,88.1977
812.8488,88.0265
813.8130,87.8647
814.7773,87.72
815.7415,87.6027
816.7057,87.5199
817.6700,87.4714
818.6342,87.4507
819.5984,87.4481
820.5627,87.4555
821.5269,87.4689
822.4911,87.4875
823.4554,87.5122
824.4196,87.5433
825.3839,87.5789
826.3481,87.6156
827.3123,87.6493
828.2766,87.6761
829.2408,87.6932
830.2050,87.6978
831.1693,87.6864
832.1335,87.6542
833.0977,87.5956
834.0620,87.5069
835.0262,87.3884
835.9904,87.2451
836.9547,87.0843
837.9189,86.9115
838.8831,86.7276
839.8474,86.5291
840.8116,86.3119
841.7758,86.076
842.7401,85.8275
843.7043,85.5761
844.6685,85.3304
845.6328,85.0936
846.5970,84.8629
847.5612,84.6335
848.5255,84.4031
849.4897,84.1754
850.4539,83.9595
851.4182,83.7661
852.3824,83.6035
853.3466,83.4737
854.3109,83.3722
855.2751,83.2897
856.2393,83.2152
857.2036,83.1394
858.1678,83.0578
859.1320,82.9716
860.0963,82.8873
861.0605,82.8144
862.0247,82.7627
862.9890,82.7391
863.9532,82.7461
864.9174,82.7813
865.8817,82.8384
866.8459,82.9094
867.8101,82.9872
868.7744,83.0682
869.7386,83.1523
870.7028,83.2406
871.6671,83.3299
872.6313,83.4086
873.5955,83.4568
874.5598,83.4528
875.5240,83.3836
876.4882,83.2534
877.4525,83.0848
878.4167,82.911
879.3809,82.7624
880.3452,82.6558
881.3094,82.5922
882.2736,82.5618
883.2379,82.553
884.2021,82.5577
885.1663,82.5707
886.1306,82.5873
887.0948,82.6035
888.0590,82.6198
889.0233,82.6474
889.9875,82.7084
890.9517,82.8289
891.9160,83.0267
892.8802,83.3023
893.8444,83.6382
894.8087,84.0071
895.7729,84.384
896.7371,84.7534
897.7014,85.1101
898.6656,85.4539
899.6298,85.7839
900.5941,86.0976
901.5583,86.3919
902.5225,86.6668
903.4868,86.9252
904.4510,87.1706
905.4152,87.4029
906.3795,87.6155
907.3437,87.7969
908.3079,87.9353
909.2722,88.0246
910.2364,88.0701
911.2006,88.0885
912.1649,88.1044
913.1291,88.1412
914.0933,88.2137
915.0576,88.3241
916.0218,88.4649
916.9860,88.625
917.9503,88.7977
918.9145,88.9829
919.8787,89.1854
920.8430,89.4103
921.8072,89.6579
922.7714,89.9231
923.7357,90.1969
924.6999,90.469
925.6641,90.731
926.6284,90.9784
927.5926,91.2133
928.5568,91.446
929.5211,91.6948
930.4853,91.9835
931.4495,92.3349
932.4138,92.7656
933.3780,93.2813
934.3422,93.8756
935.3065,94.5316
936.2707,95.224
937.2349,95.9225
938.1992,96.5957
939.1634,97.2165
940.1276,97.7671
941.0919,98.242
942.0561,98.6464
943.0203,98.9908
943.9846,99.2844
944.9488,99.5305
945.9130,99.7268
946.8773,99.8691
947.8415,99.9558
948.8057,99.9905
949.7700,99.9817
950.7342,99.9395
951.6984,99.872
952.6627,99.7835
953.6269,99.6744
954.5911,99.5434
955.5554,99.3898
956.5196,99.2339
957.4838,99.1274
958.4481,98.998
959.4123,98.8415
960.3765,98.6522
961.3408,98.4266
962.3050,98.1679
963.2692,97.8878
964.2335,97.6045
965.1977,97.337
966.1619,97.0986
967.1262,96.8936
968.0904,96.7179
969.0546,96.5625
970.0189,96.4184
970.9831,96.28
971.9473,96.1452
972.9116,96.0147
973.8758,95.89
974.8400,95.7708
975.8043,95.6538
976.7685,95.5319
977.7327,95.3956
978.6970,95.2357
979.6612,95.0463
980.6254,94.8263
981.5897,94.5789
982.5539,94.3086
983.5181,94.0184
984.4824,93.7098
985.4466,93.3844
986.4108,93.0464
987.3751,92.7047
988.3393,92.3723
989.3035,92.0632
990.2678,91.7884
991.2320,91.5532
992.1962,91.3559
993.1605,91.1895
994.1247,91.0438
995.0889,90.9093
996.0532,90.7787
997.0174,90.6468
997.9816,90.5089
998.9459,90.3587
999.9101,90.1867
1000.8743,89.9821
1001.8386,89.7344
1002.8028,89.4358
1003.7670,89.0812
1004.7313,88.6668
1005.6955,88.1893
1006.6597,87.6453
1007.6240,87.0325
1008.5882,86.3498
1009.5524,85.598
1010.5167,84.7795
1011.4809,83.8988
1012.4451,82.9624
1013.4094,81.9774
1014.3736,80.9488
1015.3378,79.8782
1016.3021,78.7658
1017.2663,77.616
1018.2305,76.4403
1019.1948,75.2545
1020.1590,74.0665
1021.1232,72.8656
1022.0875,71.623
1023.0517,70.3096
1024.0160,68.9243
1024.9802,67.5125
1025.9445,66.1606
1026.9087,64.9626
1027.8729,63.9778
1028.8372,63.2042
1029.8014,62.5829
1030.7656,62.0321
1031.7299,61.4876
1032.6941,60.9293
1033.6583,60.3813
1034.6226,59.8922
1035.5868,59.5094
1036.5510,59.2604
1037.5153,59.1457
1038.4795,59.1422
1039.4437,59.212
1040.4080,59.3151
1041.3722,59.4202
1042.3364,59.513
1043.3007,59.5961
1044.2649,59.6822
1045.2291,59.7846
1046.1934,59.9117
1047.1576,60.0694
1048.1218,60.2675
1049.0861,60.5237
1050.0503,60.8577
1051.0145,61.2791
1051.9788,61.7777
1052.9430,62.3263
1053.9072,62.8967
1054.8715,63.4814
1055.8357,64.1028
1056.7999,64.801
1057.7642,65.5996
1058.7284,66.4716
1059.6926,67.3261
1060.6569,68.0342
1061.6211,68.4852
1062.5853,68.646
1063.5496,68.5884
1064.5138,68.4644
1065.4780,68.4373
1066.4423,68.6047
1067.4065,68.9543
1068.3707,69.3768
1069.3350,69.7253
1070.2992,69.886
1071.2634,69.8216
1072.2277,69.5696
1073.1919,69.2059
1074.1561,68.8016
1075.1204,68.3991
1076.0846,68.0134
1077.0488,67.6485
1078.0131,67.312
1078.9773,67.0178
1079.9415,66.7777
1080.9058,66.5936
1081.8700,66.4558
1082.8342,66.3495
1083.7985,66.2648
1084.7627,66.2038
1085.7269,66.1814
1086.6912,66.2201
1087.6554,66.3407
1088.6196,66.5515
1089.5839,66.841
1090.5481,67.1771
1091.5123,67.5148
1092.4766,67.8105
1093.4408,68.0372
1094.4050,68.1927
1095.3693,68.2982
1096.3335,68.3873
1097.2977,68.493
1098.2620,68.6376
1099.2262,68.8298
1100.1904,69.068
1101.1547,69.3462
1102.1189,69.6588
1103.0831,70.0035
1104.0474,70.3815
1105.0116,70.7968
1105.9758,71.2549
1106.9401,71.7614
1107.9043,72.3206
1108.8685,72.935
1109.8328,73.6058
1110.7970,74.3341
1111.7612,75.1214
1112.7255,75.968
1113.6897,76.8716
1114.6539,77.8255
1115.6182,78.8196
1116.5824,79.8439
1117.5466,80.8925
1118.5109,81.9663
1119.4751,83.0718
1120.4393,84.2164
1121.4036,85.4034
1122.3678,86.6276
1123.3320,87.8755
1124.2963,89.1273
1125.2605,90.3619
1126.2247,91.5596
1127.1890,92.7053
1128.1532,93.7871
1129.1174,94.7953
1130.0817,95.7201
1131.0459,96.5499
1132.0101,97.2723
1132.9744,97.8758
1133.9386,98.3525
1134.9028,98.7004
1135.8671,98.9224
1136.8313,99.0251
1137.7955,99.0148
1138.7598,98.8964
1139.7240,98.6738
1140.6882,98.3521
1141.6525,97.9406
1142.6167,97.4538
1143.5809,96.9112
1144.5452,96.3355
1145.5094,95.7504
1146.4736,95.1789
1147.4379,94.643
1148.4021,94.1483
1149.3663,93.6597
1150.3306,93.253
1151.2948,92.9305
1152.2590,92.6852
1153.2233,92.5014
1154.1875,92.3575
1155.1517,92.2304
1156.1160,92.1001
1157.0802,91.9514
1158.0444,91.7743
1159.0087,91.5616
1159.9729,91.307
1160.9371,91.0051
1161.9014,90.6531
1162.8656,90.2533
1163.8298,89.8146
1164.7941,89.35
1165.7583,88.8742
1166.7225,88.3991
1167.6868,87.9317
1168.6510,87.4747
1169.6152,87.027
1170.5795,86.5862
1171.5437,86.1492
1172.5079,85.7134
1173.4722,85.2769
1174.4364,84.8392
1175.4006,84.4009
1176.3649,83.9638
1177.3291,83.5292
1178.2933,83.0972
1179.2576,82.6656
1180.2218,82.2309
1181.1860,81.7888
1182.1503,81.3369
1183.1145,80.8756
1184.0787,80.4083
1185.0430,79.9407
1186.0072,79.478
1186.9714,79.0231
1187.9357,78.5753
1188.8999,78.1308
1189.8641,77.6852
1190.8284,77.2355
1191.7926,76.7819
1192.7568,76.3277
1193.7211,75.8783
1194.6853,75.4395
1195.6495,75.0157
1196.6138,74.6099
1197.5780,74.2236
1198.5422,73.8572
1199.5065,73.5269
1200.4707,73.1984
1201.4349,72.8895
1202.3992,72.6008
1203.3634,72.3337
1204.3276,72.0909
1205.2919,71.8757
1206.2561,71.691
1207.2203,71.5383
1208.1846,71.4166
1209.1488,71.3237
1210.1130,71.2565
1211.0773,71.213
1212.0415,71.1925
1213.0057,71.1954
1213.9700,71.2222
1214.9342,71.2724
1215.8984,71.3448
1216.8627,71.4369
1217.8269,71.5458
1218.7911,71.6677
1219.7554,71.7987
1220.7196,71.9347
1221.6838,72.0721
1222.6481,72.2077
1223.6123,72.3386
1224.5765,72.4624
1225.5408,72.576
1226.5050,72.6757
1227.4692,72.7559
1228.4335,72.8096
1229.3977,72.8303
1230.3619,72.817
1231.3262,72.7798
1232.2904,72.742
1233.2546,72.7346
1234.2189,72.7837
1235.1831,72.8981
1236.1473,73.0647
1237.1116,73.2572
1238.0758,73.4558
1239.0400,73.662
1240.0043,73.8998
1240.9685,74.1984
1241.9327,74.5665
1242.8970,74.9768
1243.8612,75.371
1244.8254,75.6862
1245.7897,75.8842
1246.7539,75.9677
1247.7181,75.9725
1248.6824,75.9447
1249.6466,75.916
1250.6108,75.8929
1251.5751,75.8608
1252.5393,75.799
1253.5035,75.6938
1254.4678,75.5449
1255.4320,75.3626
1256.3962,75.1628
1257.3605,74.9618
1258.3247,74.7752
1259.2889,74.6175
1260.2532,74.5013
1261.2174,74.4358
1262.1816,74.4243
1263.1459,74.4639
1264.1101,74.5463
1265.0743,74.6602
1266.0386,74.7935
1267.0028,74.9361
1267.9670,75.0807
1268.9313,75.2232
1269.8955,75.3628
1270.8597,75.5012
1271.8240,75.6418
1272.7882,75.7897
1273.7524,75.9506
1274.7167,76.1299
1275.6809,76.3311
1276.6451,76.5549
1277.6094,76.7994
1278.5736,77.0603
1279.5378,77.3315
1280.5021,77.6062
1281.4663,77.8779
1282.4305,78.1415
1283.3948,78.3947
1284.3590,78.6387
1285.3232,78.8778
1286.2875,79.1175
1287.2517,79.3628
1288.2159,79.6159
1289.1802,79.876
1290.1444,80.1408
1291.1086,80.4084
1292.0729,80.6784
1293.0371,80.9523
1294.0013,81.2321
1294.9656,81.5184
1295.9298,81.8095
1296.8940,82.101
1297.8583,82.3862
1298.8225,82.6579
1299.7867,82.9091
1300.7510,83.1348
1301.7152,83.3326
1302.6794,83.5038
1303.6437,83.6529
1304.6079,83.7856
1305.5721,83.9063
1306.5364,84.0167
1307.5006,84.1155
1308.4648,84.2014
1309.4291,84.2754
1310.3933,84.3414
1311.3575,84.405
1312.3218,84.4706
1313.2860,84.5385
1314.2502,84.6064
1315.2145,84.6718
1316.1787,84.7351
1317.1429,84.7999
1318.1072,84.8702
1319.0714,84.9457
1320.0356,85.0212
1320.9999,85.0881
1321.9641,85.1402
1322.9283,85.1766
1323.8926,85.2018
1324.8568,85.2228
1325.8210,85.2459
1326.7853,85.2742
1327.7495,85.3083
1328.7137,85.3474
1329.6780,85.3917
1330.6422,85.4421
1331.6064,85.4982
1332.5707,85.5556
1333.5349,85.6059
1334.4991,85.6401
1335.4634,85.6546
1336.4276,85.6563
1337.3918,85.6655
1338.3561,85.7081
1339.3203,85.7978
1340.2845,85.9199
1341.2488,86.0384
1342.2130,86.1204
1343.1772,86.1508
1344.1415,86.1309
1345.1057,86.0705
1346.0699,85.9816
1347.0342,85.8759
1347.9984,85.762
1348.9626,85.6442
1349.9269,85.523
1350.8911,85.3974
1351.8553,85.2675
1352.8196,85.1373
1353.7838,85.0131
1354.7480,84.9007
1355.7123,84.8007
1356.6765,84.7073
1357.6407,84.6123
1358.6050,84.5118
1359.5692,84.411
1360.5334,84.3273
1361.4977,84.2852
1362.4619,84.2985
1363.4261,84.3543
1364.3904,84.4218
1365.3546,84.4776
1366.3188,84.5157
1367.2831,84.5397
1368.2473,84.5521
1369.2115,84.5499
1370.1758,84.5272
1371.1400,84.4817
1372.1042,84.4212
1373.0685,84.3645
1374.0327,84.3327
1374.9969,84.3346
1375.9612,84.3598
1376.9254,84.3927
1377.8896,84.4308
1378.8539,84.4878
1379.8181,84.582
1380.7823,84.7213
1381.7466,84.8989
1382.7108,85.1037
1383.6750,85.3369
1384.6393,85.6178
1385.6035,85.9661
1386.5677,86.3642
1387.5320,86.7278
1388.4962,86.9423
1389.4604,86.9427
1390.4247,86.7477
1391.3889,86.4335
1392.3531,86.1039
1393.3174,85.8737
1394.2816,85.8382
1395.2458,86.0162
1396.2101,86.3146
1397.1743,86.577
1398.1385,86.6844
1399.1028,86.6105
1400.0670,86.3999
1401.0313,86.1171
1401.9955,85.8121
1402.9597,85.5152
1403.9240,85.2467
1404.8882,85.0244
1405.8524,84.8591
1406.8167,84.7477
1407.7809,84.6776
1408.7451,84.6389
1409.7094,84.6286
1410.6736,84.6442
1411.6378,84.6747
1412.6021,84.7004
1413.5663,84.7044
1414.5305,84.6818
1415.4948,84.6387
1416.4590,84.5859
1417.4232,84.5352
1418.3875,84.4907
1419.3517,84.4326
1420.3159,84.3268
1421.2802,84.1597
1422.2444,83.9467
1423.2086,83.7135
1424.1729,83.4806
1425.1371,83.2585
1426.1013,83.0498
1427.0656,82.8522
1428.0298,82.663
1428.9940,82.4829
1429.9583,82.3155
1430.9225,82.1644
1431.8867,82.029
1432.8510,81.905
1433.8152,81.7825
1434.7794,81.6469
1435.7437,81.4868
1436.7079,81.2989
1437.6721,81.0805
1438.6364,80.8266
1439.6006,80.5423
1440.5648,80.2437
1441.5291,79.9468
1442.4933,79.6603
1443.4575,79.3841
1444.4218,79.1114
1445.3860,78.8322
1446.3502,78.5389
1447.3145,78.2326
1448.2787,77.9232
1449.2429,77.6227
1450.2072,77.3395
1451.1714,77.081
1452.1356,76.8548
1453.0999,76.6651
1454.0641,76.5077
1455.0283,76.3798
1455.9926,76.3167
1456.9568,76.3857
1457.9210,76.5404
1458.8853,76.6194
1459.8495,76.5732
1460.8137,76.4775
1461.7780,76.4323
1462.7422,76.5328
1463.7064,76.8653
1464.6707,77.4571
1465.6349,78.2096
1466.5991,78.955
1467.5634,79.6017
1468.5276,80.1744
1469.4918,80.7551
1470.4561,81.4347
1471.4203,82.2893
1472.3845,83.3231
1473.3488,84.3815
1474.3130,85.2189
1475.2772,85.7185
1476.2415,85.9326
1477.2057,85.9633
1478.1699,85.896
1479.1342,85.7999
1480.0984,85.7408
1481.0626,85.7734
1482.0269,85.9212
1482.9911,86.1655
1483.9553,86.4579
1484.9196,86.7478
1485.8838,86.9991
1486.8480,87.1971
1487.8123,87.3531
1488.7765,87.4955
1489.7407,87.6257
1490.7050,87.6985
1491.6692,87.6802
1492.6334,87.5815
1493.5977,87.4258
1494.5619,87.2176
1495.5261,86.9387
1496.4904,86.5704
1497.4546,86.1225
1498.4188,85.631
1499.3831,85.1322
1500.3473,84.6579
1501.3115,84.2407
1502.2758,83.9046
1503.2400,83.6474
1504.2042,83.429
1505.1685,83.1828
1506.1327,82.901
1507.0969,82.7186
1508.0612,82.691
1509.0254,82.6533
1509.9896,82.5137
1510.9539,82.3078
1511.9181,82.0972
1512.8823,81.9435
1513.8466,81.9199
1514.8108,82.1059
1515.7750,82.548
1516.7393,83.2246
1517.7035,84.079
1518.6677,85.0992
1519.6320,86.3433
1520.5962,87.8421
1521.5604,89.4655
1522.5247,90.9632
1523.4889,92.1807
1524.4531,93.1654
1525.4174,94.0556
1526.3816,94.9258
1527.3458,95.7384
1528.3101,96.4173
1529.2743,96.9357
1530.2385,97.3386
1531.2028,97.7122
1532.1670,98.1335
1533.1312,98.6109
1534.0955,99.0658
1535.0597,99.4132
1536.0239,99.6418
1536.9882,99.7867
1537.9524,99.8612
1538.9166,99.8454
1539.8809,99.7831
1540.8451,99.8562
1541.8093,100.131
1542.7736,100.44
1543.7378,100.669
1544.7020,100.813
1545.6663,100.884
1546.6305,100.892
1547.5947,100.848
1548.5590,100.773
1549.5232,100.683
1550.4874,100.606
1551.4517,100.505
1552.4159,100.377
1553.3801,100.235
1554.3444,100.108
1555.3086,100.008
1556.2728,99.9132
1557.2371,99.7981
1558.2013,99.7249
1559.1655,99.734
1560.1298,99.6411
1561.0940,99.3402
1562.0582,98.9265
1563.0225,98.5139
1563.9867,98.1579
1564.9509,97.8643
1565.9152,97.6079
1566.8794,97.3458
1567.8436,97.0377
1568.8079,96.6717
1569.7721,96.2751
1570.7363,95.8888
1571.7006,95.5372
1572.6648,95.2136
1573.6290,94.8745
1574.5933,94.4537
1575.5575,93.9198
1576.5217,93.335
1577.4860,92.795
1578.4502,92.3187
1579.4144,91.8676
1580.3787,91.4055
1581.3429,90.9113
1582.3071,90.3783
1583.2714,89.8157
1584.2356,89.2413
1585.1998,88.6668
1586.1641,88.0918
1587.1283,87.5113
1588.0925,86.9266
1589.0568,86.3472
1590.0210,85.7841
1590.9852,85.2444
1591.9495,84.7327
1592.9137,84.2576
1593.8779,83.8336
1594.8422,83.4746
1595.8064,83.1836
1596.7706,82.9503
1597.7349,82.7588
1598.6991,82.5968
1599.6633,82.4599
1600.6276,82.3502
1601.5918,82.2715
1602.5560,82.2237
1603.5203,82.2011
1604.4845,82.1951
1605.4487,82.2025
1606.4130,82.2304
1607.3772,82.2963
1608.3414,82.4152
1609.3057,82.582
1610.2699,82.7681
1611.2341,82.9443
1612.1984,83.1075
1613.1626,83.2857
1614.1268,83.5338
1615.0911,83.919
1616.0553,84.466
1617.0195,85.0734
1617.9838,85.5714
1618.9480,85.8979
1619.9122,86.1289
1620.8765,86.3782
1621.8407,86.724
1622.8049,87.1775
1623.7692,87.6808
1624.7334,88.1539
1625.6976,88.5662
1626.6619,88.9476
1627.6261,89.3341
1628.5903,89.7207
1629.5546,90.0709
1630.5188,90.3616
1631.4830,90.6046
1632.4473,90.8295
1633.4115,91.0614
1634.3757,91.3261
1635.3400,91.6579
1636.3042,92.0343
1637.2684,92.3424
1638.2327,92.5174
1639.1969,92.5994
1640.1611,92.6535
1641.1254,92.7173
1642.0896,92.7982
1643.0538,92.8801
1644.0181,92.929
1644.9823,92.9145
1645.9465,92.8543
1646.9108,92.8132
1647.8750,92.8274
1648.8392,92.8937
1649.8035,93.011
1650.7677,93.1616
1651.7319,93.2893
1652.6962,93.3507
1653.6604,93.3471
1654.6246,93.2199
1655.5889,92.9402
1656.5531,92.604
1657.5173,92.3136
1658.4816,92.1058
1659.4458,91.9595
1660.4100,91.8277
1661.3743,91.6736
1662.3385,91.4936
1663.3027,91.3034
1664.2670,91.1156
1665.2312,90.9347
1666.1954,90.7527
1667.1597,90.5459
1668.1239,90.2934
1669.0881,90.0132
1670.0524,89.7626
1671.0166,89.5794
1671.9808,89.4519
1672.9451,89.3501
1673.9093,89.2438
1674.8735,89.1
1675.8378,88.8888
1676.8020,88.6037
1677.7662,88.2761
1678.7305,87.961
1679.6947,87.7029
1680.6589,87.5077
1681.6232,87.3346
1682.5874,87.1273
1683.5516,86.8761
1684.5159,86.6111
1685.4801,86.3197
1686.4443,85.977
1687.4086,85.6013
1688.3728,85.2304
1689.3370,84.8935
1690.3013,84.6047
1691.2655,84.3615
1692.2297,84.1413
1693.1940,83.9035
1694.1582,83.6035
1695.1224,83.2237
1696.0867,82.8076
1697.0509,82.4581
1698.0151,82.264
1698.9794,82.2051
1699.9436,82.1555
1700.9078,82.0049
1701.8721,81.7493
1702.8363,81.4656
1703.8005,81.2426
1704.7648,81.1362
1705.7290,81.1546
1706.6932,81.2592
1707.6575,81.3911
1708.6217,81.5099
1709.5859,81.6125
1710.5502,81.7177
1711.5144,81.8421
1712.4786,81.9899
1713.4429,82.1627
1714.4071,82.3856
1715.3713,82.7371
1716.3356,83.3117
1717.2998,84.0552
1718.2640,84.7232
1719.2283,85.1505
1720.1925,85.3852
1721.1567,85.5615
1722.1210,85.78
1723.0852,86.0758
1724.0494,86.4295
1725.0137,86.7956
1725.9779,87.1338
1726.9421,87.4289
1727.9064,87.6905
1728.8706,87.9407
1729.8348,88.2055
1730.7991,88.5153
1731.7633,88.9096
1732.7275,89.4172
1733.6918,89.9841
1734.6560,90.4584
1735.6202,90.7401
1736.5845,90.8786
1737.5487,90.9933
1738.5129,91.1744
1739.4772,91.4481
1740.4414,91.781
1741.4056,92.1102
1742.3699,92.3883
1743.3341,92.6109
1744.2983,92.8047
1745.2626,92.9992
1746.2268,93.2134
1747.1910,93.4645
1748.1553,93.7778
1749.1195,94.1683
1750.0837,94.5953
1751.0480,94.966
1752.0122,95.2142
1752.9764,95.3502
1753.9407,95.431
1754.9049,95.5112
1755.8691,95.618
1756.8334,95.7506
1757.7976,95.8946
1758.7618,96.0404
1759.7261,96.1915
1760.6903,96.3569
1761.6545,96.5351
1762.6188,96.7083
1763.5830,96.8562
1764.5472,96.9745
1765.5115,97.0751
1766.4757,97.1714
1767.4399,97.2668
1768.4042,97.3552
1769.3684,97.4343
1770.3326,97.5228
1771.2969,97.6593
1772.2611,97.8624
1773.2253,98.0911
1774.1896,98.2802
1775.1538,98.4082
1776.1180,98.5048
1777.0823,98.6115
1778.0465,98.7512
1779.0107,98.9224
1779.9750,99.1078
1780.9392,99.2888
1781.9034,99.4553
1782.8677,99.6053
1783.8319,99.7358
1784.7961,99.8383
1785.7604,99.9058
1786.7246,99.9433
1787.6888,99.9684
1788.6531,99.9987
1789.6173,100.04
1790.5815,100.087
1791.5458,100.137
1792.5100,100.187
1793.4742,100.217
1794.4385,100.215
1795.4027,100.194
1796.3669,100.18
1797.3312,100.194
1798.2954,100.236
1799.2596,100.295
1800.2239,100.36
1801.1881,100.419
1802.1523,100.465
1803.1166,100.491
1804.0808,100.501
1805.0450,100.5
1806.0093,100.491
1806.9735,100.476
1807.9377,100.459
1808.9020,100.446
1809.8662,100.445
1810.8304,100.463
1811.7947,100.495
1812.7589,100.53
1813.7231,100.572
1814.6874,100.618
1815.6516,100.655
1816.6158,100.683
1817.5801,100.701
1818.5443,100.712
1819.5085,100.72
1820.4728,100.733
1821.4370,100.754
1822.4012,100.783
1823.3655,100.812
1824.3297,100.832
1825.2939,100.835
1826.2582,100.823
1827.2224,100.806
1828.1866,100.801
1829.1509,100.823
1830.1151,100.87
1831.0793,100.919
1832.0436,100.945
1833.0078,100.944
1833.9720,100.929
1834.9363,100.917
1835.9005,100.912
1836.8647,100.914
1837.8290,100.92
1838.7932,100.932
1839.7574,100.958
1840.7217,100.999
1841.6859,101.046
1842.6501,101.083
1843.6144,101.099
1844.5786,101.098
1845.5428,101.083
1846.5071,101.058
1847.4713,101.036
1848.4355,101.029
1849.3998,101.041
1850.3640,101.065
1851.3282,101.089
1852.2925,101.103
1853.2567,101.107
1854.2209,101.104
1855.1852,101.097
1856.1494,101.088
1857.1136,101.079
1858.0779,101.073
1859.0421,101.071
1860.0063,101.073
1860.9706,101.073
1861.9348,101.064
1862.8990,101.041
1863.8633,101.007
1864.8275,100.967
1865.7917,100.931
1866.7560,100.91
1867.7202,100.923
1868.6844,100.976
1869.6487,101.049
1870.6129,101.102
1871.5771,101.121
1872.5414,101.115
1873.5056,101.105
1874.4698,101.1
1875.4341,101.1
1876.3983,101.103
1877.3625,101.104
1878.3268,101.103
1879.2910,101.101
1880.2552,101.099
1881.2195,101.095
1882.1837,101.086
1883.1479,101.073
1884.1122,101.057
1885.0764,101.044
1886.0406,101.037
1887.0049,101.038
1887.9691,101.046
1888.9333,101.055
1889.8976,101.059
1890.8618,101.052
1891.8260,101.034
1892.7903,101.012
1893.7545,100.995
1894.7188,100.991
1895.6830,100.999
1896.6472,101.014
1897.6115,101.028
1898.5757,101.032
1899.5399,101.027
1900.5042,101.015
1901.4684,101
1902.4326,100.984
1903.3969,100.966
1904.3611,100.945
1905.3253,100.919
1906.2896,100.891
1907.2538,100.865
1908.2180,100.847
1909.1823,100.841
1910.1465,100.845
1911.1107,100.85
1912.0750,100.853
1913.0392,100.853
1914.0034,100.855
1914.9677,100.864
1915.9319,100.874
1916.8961,100.88
1917.8604,100.872
1918.8246,100.847
1919.7888,100.806
1920.7531,100.764
1921.7173,100.734
1922.6815,100.725
1923.6458,100.737
1924.6100,100.759
1925.5742,100.78
1926.5385,100.791
1927.5027,100.795
1928.4669,100.793
1929.4312,100.788
1930.3954,100.781
1931.3596,100.775
1932.3239,100.77
1933.2881,100.769
1934.2523,100.774
1935.2166,100.781
1936.1808,100.788
1937.1450,100.79
1938.1093,100.786
1939.0735,100.777
1940.0377,100.766
1941.0020,100.754
1941.9662,100.746
1942.9304,100.746
1943.8947,100.752
1944.8589,100.762
1945.8231,100.775
1946.7874,100.791
1947.7516,100.809
1948.7158,100.826
1949.6801,100.838
1950.6443,100.846
1951.6085,100.85
1952.5728,100.855
1953.5370,100.862
1954.5012,100.873
1955.4655,100.886
1956.4297,100.899
1957.3939,100.91
1958.3582,100.919
1959.3224,100.926
1960.2866,100.931
1961.2509,100.933
1962.2151,100.929
1963.1793,100.923
1964.1436,100.915
1965.1078,100.911
1966.0720,100.916
1967.0363,100.929
1968.0005,100.949
1968.9647,100.968
1969.9290,100.982
1970.8932,100.99
1971.8574,100.994
1972.8217,100.996
1973.7859,100.998
1974.7501,101.001
1975.7144,101.004
1976.6786,101.008
1977.6428,101.01
1978.6071,101.011
1979.5713,101.011
1980.5355,101.009
1981.4998,101.005
1982.4640,101.001
1983.4282,100.996
1984.3925,100.99
1985.3567,100.984
1986.3209,100.976
1987.2852,100.967
1988.2494,100.958
1989.2136,100.951
1990.1779,100.947
1991.1421,100.946
1992.1063,100.95
1993.0706,100.954
1994.0348,100.956
1994.9990,100.954
1995.9633,100.95
1996.9275,100.944
1997.8917,100.938
1998.8560,100.935
1999.8202,100.935
2000.7844,100.936
2001.7487,100.936
2002.7129,100.935
2003.6771,100.931
2004.6414,100.922
2005.6056,100.912
2006.5698,100.9
2007.5341,100.89
2008.4983,100.883
2009.4625,100.879
2010.4268,100.877
2011.3910,100.872
2012.3552,100.865
2013.3195,100.853
2014.2837,100.84
2015.2479,100.827
2016.2122,100.82
2017.1764,100.818
2018.1406,100.822
2019.1049,100.828
2020.0691,100.832
2021.0333,100.832
2021.9976,100.829
2022.9618,100.825
2023.9260,100.821
2024.8903,100.818
2025.8545,100.817
2026.8187,100.816
2027.7830,100.814
2028.7472,100.812
2029.7114,100.809
2030.6757,100.805
2031.6399,100.801
2032.6041,100.797
2033.5684,100.794
2034.5326,100.793
2035.4968,100.792
2036.4611,100.79
2037.4253,100.786
2038.3895,100.78
2039.3538,100.772
2040.3180,100.766
2041.2822,100.761
2042.2465,100.76
2043.2107,100.761
2044.1749,100.764
2045.1392,100.765
2046.1034,100.766
2047.0676,100.765
2048.0320,100.761
2048.9961,100.757
2049.9604,100.753
2050.9246,100.749
2051.8889,100.746
2052.8530,100.743
2053.8174,100.74
2054.7815,100.734
2055.7458,100.728
2056.7100,100.721
2057.6743,100.716
2058.6384,100.713
2059.6028,100.71
2060.5669,100.706
2061.5313,100.699
2062.4954,100.691
2063.4597,100.684
2064.4238,100.682
2065.3882,100.686
2066.3523,100.695
2067.3167,100.706
2068.2808,100.716
2069.2451,100.723
2070.2092,100.727
2071.1736,100.728
2072.1377,100.727
2073.1021,100.726
2074.0662,100.723
2075.0305,100.721
2075.9946,100.718
2076.9590,100.717
2077.9231,100.716
2078.8875,100.716
2079.8516,100.717
2080.8159,100.719
2081.7800,100.72
2082.7444,100.719
2083.7085,100.717
2084.6729,100.715
2085.6370,100.713
2086.6013,100.714
2087.5654,100.718
2088.5298,100.723
2089.4939,100.727
2090.4583,100.727
2091.4224,100.722
2092.3867,100.714
2093.3508,100.707
2094.3152,100.701
2095.2793,100.699
2096.2437,100.7
2097.2078,100.702
2098.1721,100.703
2099.1362,100.701
2100.1006,100.695
2101.0647,100.691
2102.0291,100.687
2102.9932,100.686
2103.9575,100.687
2104.9216,100.688
2105.8860,100.687
2106.8501,100.684
2107.8145,100.677
2108.7786,100.668
2109.7429,100.66
2110.7070,100.653
2111.6714,100.648
2112.6355,100.646
2113.5999,100.647
2114.5640,100.649
2115.5283,100.652
2116.4924,100.655
2117.4568,100.656
2118.4209,100.656
2119.3853,100.653
2120.3494,100.648
2121.3137,100.642
2122.2778,100.636
2123.2422,100.63
2124.2063,100.626
2125.1707,100.622
2126.1348,100.62
2127.0991,100.62
2128.0632,100.622
2129.0276,100.626
2129.9917,100.631
2130.9561,100.634
2131.9202,100.636
2132.8845,100.634
2133.8486,100.631
2134.8130,100.629
2135.7771,100.629
2136.7415,100.634
2137.7056,100.642
2138.6699,100.653
2139.6340,100.663
2140.5984,100.67
2141.5625,100.673
2142.5269,100.674
2143.4910,100.676
2144.4553,100.679
2145.4194,100.685
2146.3838,100.693
2147.3479,100.7
2148.3123,100.704
2149.2764,100.706
2150.2407,100.704
2151.2048,100.701
2152.1692,100.697
2153.1333,100.694
2154.0977,100.694
2155.0618,100.697
2156.0261,100.702
2156.9902,100.707
2157.9546,100.712
2158.9187,100.714
2159.8831,100.715
2160.8472,100.715
2161.8115,100.716
2162.7756,100.718
2163.7400,100.721
2164.7041,100.722
2165.6685,100.721
2166.6326,100.718
2167.5969,100.713
2168.5610,100.709
2169.5254,100.706
2170.4895,100.703
2171.4539,100.701
2172.4180,100.699
2173.3823,100.697
2174.3464,100.695
2175.3108,100.695
2176.2749,100.696
2177.2393,100.698
2178.2034,100.701
2179.1677,100.701
2180.1318,100.698
2181.0962,100.691
2182.0603,100.681
2183.0247,100.671
2183.9888,100.663
2184.9531,100.661
2185.9172,100.663
2186.8816,100.668
2187.8457,100.674
2188.8101,100.678
2189.7742,100.68
2190.7385,100.681
2191.7026,100.681
2192.6670,100.683
2193.6311,100.685
2194.5955,100.686
2195.5596,100.686
2196.5239,100.685
2197.4880,100.683
2198.4524,100.68
2199.4165,100.678
2200.3809,100.675
2201.3450,100.673
2202.3093,100.671
2203.2734,100.668
2204.2378,100.665
2205.2019,100.661
2206.1663,100.657
2207.1304,100.653
2208.0947,100.652
2209.0588,100.653
2210.0232,100.656
2210.9873,100.657
2211.9517,100.655
2212.9158,100.649
2213.8801,100.642
2214.8442,100.635
2215.8086,100.63
2216.7727,100.627
2217.7371,100.624
2218.7012,100.619
2219.6655,100.612
2220.6296,100.605
2221.5940,100.599
2222.5581,100.597
2223.5225,100.598
2224.4866,100.601
2225.4509,100.603
2226.4150,100.602
2227.3794,100.596
2228.3435,100.586
2229.3079,100.573
2230.2720,100.558
2231.2363,100.543
2232.2004,100.53
2233.1648,100.519
2234.1289,100.512
2235.0933,100.507
2236.0574,100.505
2237.0217,100.505
2237.9858,100.503
2238.9502,100.498
2239.9143,100.488
2240.8787,100.474
2241.8428,100.458
2242.8071,100.442
2243.7712,100.428
2244.7356,100.417
2245.6997,100.408
2246.6641,100.4
2247.6282,100.392
2248.5925,100.383
2249.5566,100.373
2250.5210,100.361
2251.4851,100.347
2252.4495,100.331
2253.4136,100.314
2254.3779,100.295
2255.3420,100.277
2256.3064,100.26
2257.2705,100.244
2258.2349,100.23
2259.1990,100.219
2260.1633,100.208
2261.1274,100.197
2262.0918,100.187
2263.0559,100.178
2264.0203,100.17
2264.9844,100.163
2265.9487,100.159
2266.9128,100.155
2267.8772,100.148
2268.8413,100.138
2269.8057,100.124
2270.7698,100.109
2271.7341,100.096
2272.6982,100.087
2273.6626,100.085
2274.6267,100.088
2275.5911,100.094
2276.5552,100.099
2277.5195,100.103
2278.4836,100.105
2279.4480,100.105
2280.4121,100.104
2281.3765,100.102
2282.3406,100.097
2283.3049,100.089
2284.2690,100.075
2285.2334,100.055
2286.1975,100.029
2287.1619,100.001
2288.1260,99.971
2289.0903,99.9409
2290.0544,99.9107
2291.0188,99.8805
2291.9829,99.8513
2292.9473,99.8251
2293.9114,99.8041
2294.8757,99.7895
2295.8398,99.7811
2296.8042,99.7782
2297.7683,99.7805
2298.7327,99.7889
2299.6968,99.8046
2300.6611,99.8279
2301.6252,99.8565
2302.5896,99.886
2303.5537,99.9106
2304.5181,99.926
2305.4822,99.9308
2306.4465,99.928
2307.4106,99.9244
2308.3750,99.9289
2309.3391,99.9486
2310.3035,99.9861
2311.2676,100.037
2312.2319,100.092
2313.1960,100.141
2314.1604,100.179
2315.1245,100.207
2316.0889,100.233
2317.0530,100.266
2318.0173,100.31
2318.9814,100.361
2319.9458,100.401
2320.9099,100.406
2321.8743,100.352
2322.8384,100.232
2323.8027,100.064
2324.7668,99.886
2325.7312,99.7439
2326.6953,99.6693
2327.6597,99.6668
2328.6238,99.7112
2329.5881,99.7582
2330.5522,99.7642
2331.5166,99.7069
2332.4807,99.5944
2333.4451,99.4562
2334.4092,99.3257
2335.3735,99.2243
2336.3376,99.1552
2337.3020,99.1063
2338.2661,99.0587
2339.2305,98.9986
2340.1946,98.9307
2341.1589,98.8906
2342.1230,98.9396
2343.0874,99.1163
2344.0515,99.3587
2345.0159,99.5158
2345.9800,99.4888
2346.9443,99.3191
2347.9084,99.1282
2348.8728,99.021
2349.8369,99.0336
2350.8013,99.127
2351.7654,99.2127
2352.7297,99.2076
2353.6938,99.0927
2354.6582,98.9175
2355.6223,98.7343
2356.5867,98.5514
2357.5508,98.3626
2358.5151,98.1894
2359.4792,98.0729
2360.4436,98.0355
2361.4077,98.0673
2362.3721,98.1524
2363.3362,98.2891
2364.3005,98.4814
2365.2646,98.7214
2366.2290,98.9966
2367.1931,99.2794
2368.1575,99.543
2369.1216,99.7799
2370.0859,99.9862
2371.0500,100.158
2372.0144,100.291
2372.9785,100.379
2373.9429,100.418
2374.9070,100.407
2375.8713,100.35
2376.8354,100.255
2377.7998,100.136
2378.7639,100.009
2379.7283,99.8889
2380.6924,99.7849
2381.6567,99.7035
2382.6208,99.6468
2383.5852,99.6134
2384.5493,99.5992
2385.5137,99.5992
2386.4778,99.6078
2387.4421,99.6199
2388.4063,99.6316
2389.3706,99.6406
2390.3347,99.6463
2391.2991,99.6496
2392.2632,99.6521
2393.2275,99.6552
2394.1917,99.6599
2395.1560,99.6662
2396.1201,99.674
2397.0845,99.6829
2398.0486,99.6924
2399.0129,99.7016
2399.9771,99.7095
2400.9414,99.7144
2401.9055,99.7155
2402.8699,99.7135
2403.8340,99.7103
2404.7983,99.7087
2405.7625,99.7109
2406.7268,99.7172
2407.6909,99.7258
2408.6553,99.7342
2409.6194,99.7402
2410.5837,99.7434
2411.5479,99.7454
2412.5122,99.7481
2413.4763,99.7532
2414.4407,99.7607
2415.4048,99.7694
2416.3691,99.778
2417.3333,99.786
2418.2976,99.7939
2419.2617,99.8024
2420.2261,99.8114
2421.1902,99.82
2422.1545,99.827
2423.1187,99.8318
2424.0830,99.8354
2425.0471,99.8397
2426.0115,99.8465
2426.9756,99.8563
2427.9399,99.8682
2428.9041,99.8801
2429.8684,99.8903
2430.8325,99.898
2431.7969,99.9039
2432.7610,99.9088
2433.7253,99.9134
2434.6895,99.9177
2435.6538,99.9214
2436.6179,99.9247
2437.5823,99.9284
2438.5464,99.9337
2439.5107,99.9412
2440.4749,99.9508
2441.4392,99.9615
2442.4033,99.9719
2443.3677,99.981
2444.3318,99.9883
2445.2961,99.994
2446.2603,99.9982
2447.2246,100.001
2448.1887,100.002
2449.1531,100.001
2450.1172,99.9997
2451.0815,99.9979
2452.0457,99.9972
2453.0100,99.9984
2453.9741,100.001
2454.9385,100.005
2455.9026,100.007
2456.8669,100.009
2457.8311,100.009
2458.7954,100.011
2459.7595,100.014
2460.7239,100.02
2461.6880,100.028
2462.6523,100.035
2463.6165,100.041
2464.5808,100.044
2465.5449,100.046
2466.5093,100.046
2467.4734,100.045
2468.4377,100.045
2469.4019,100.044
2470.3662,100.043
2471.3303,100.044
2472.2947,100.047
2473.2588,100.051
2474.2231,100.056
2475.1873,100.061
2476.1516,100.064
2477.1157,100.065
2478.0801,100.065
2479.0442,100.065
2480.0085,100.067
2480.9727,100.071
2481.9370,100.076
2482.9011,100.082
2483.8655,100.086
2484.8296,100.089
2485.7939,100.09
2486.7581,100.091
2487.7224,100.092
2488.6865,100.095
2489.6509,100.1
2490.6150,100.104
2491.5793,100.108
2492.5435,100.11
2493.5078,100.11
2494.4719,100.112
2495.4363,100.115
2496.4004,100.123
2497.3647,100.133
2498.3289,100.143
2499.2932,100.15
2500.2573,100.154
2501.2217,100.153
2502.1858,100.151
2503.1501,100.152
2504.1143,100.156
2505.0786,100.163
2506.0427,100.171
2507.0071,100.176
2507.9712,100.176
2508.9355,100.171
2509.8997,100.162
2510.8640,100.152
2511.8281,100.144
2512.7925,100.139
2513.7566,100.14
2514.7209,100.146
2515.6851,100.156
2516.6494,100.168
2517.6135,100.179
2518.5779,100.188
2519.5420,100.194
2520.5063,100.197
2521.4705,100.198
2522.4348,100.197
2523.3989,100.196
2524.3633,100.195
2525.3274,100.194
2526.2917,100.196
2527.2559,100.201
2528.2202,100.207
2529.1843,100.215
2530.1487,100.22
2531.1128,100.221
2532.0771,100.219
2533.0413,100.214
2534.0056,100.21
2534.9697,100.21
2535.9341,100.214
2536.8982,100.223
2537.8625,100.232
2538.8267,100.241
2539.7910,100.248
2540.7551,100.251
2541.7195,100.251
2542.6836,100.25
2543.6479,100.25
2544.6121,100.252
2545.5764,100.257
2546.5405,100.264
2547.5049,100.271
2548.4690,100.278
2549.4333,100.283
2550.3975,100.287
2551.3618,100.292
2552.3259,100.299
2553.2903,100.308
2554.2544,100.32
2555.2188,100.33
2556.1829,100.338
2557.1472,100.343
2558.1113,100.345
2559.0757,100.346
2560.0398,100.347
2561.0042,100.349
2561.9683,100.351
2562.9326,100.352
2563.8967,100.351
2564.8611,100.352
2565.8252,100.354
2566.7896,100.36
2567.7537,100.369
2568.7180,100.38
2569.6821,100.39
2570.6465,100.398
2571.6106,100.403
2572.5750,100.404
2573.5391,100.404
2574.5034,100.402
2575.4675,100.399
2576.4319,100.398
2577.3960,100.398
2578.3604,100.402
2579.3245,100.411
2580.2888,100.423
2581.2529,100.436
2582.2173,100.448
2583.1814,100.457
2584.1458,100.462
2585.1099,100.463
2586.0742,100.461
2587.0383,100.457
2588.0027,100.452
2588.9668,100.446
2589.9312,100.44
2590.8953,100.437
2591.8596,100.437
2592.8237,100.442
2593.7881,100.45
2594.7522,100.458
2595.7166,100.465
2596.6807,100.469
2597.6450,100.473
2598.6091,100.477
2599.5735,100.482
2600.5376,100.489
2601.5020,100.495
2602.4661,100.501
2603.4304,100.505
2604.3945,100.508
2605.3589,100.512
2606.3230,100.516
2607.2874,100.52
2608.2515,100.524
2609.2158,100.527
2610.1799,100.53
2611.1443,100.532
2612.1084,100.535
2613.0728,100.538
2614.0369,100.541
2615.0012,100.545
2615.9653,100.549
2616.9297,100.553
2617.8938,100.556
2618.8582,100.559
2619.8223,100.561
2620.7866,100.562
2621.7507,100.564
2622.7151,100.568
2623.6792,100.573
2624.6436,100.58
2625.6077,100.588
2626.5720,100.596
2627.5361,100.602
2628.5005,100.606
2629.4646,100.609
2630.4290,100.61
2631.3931,100.613
2632.3574,100.618
2633.3215,100.626
2634.2859,100.636
2635.2500,100.646
2636.2144,100.655
2637.1785,100.661
2638.1428,100.664
2639.1069,100.666
2640.0713,100.67
2641.0354,100.674
2641.9998,100.681
2642.9639,100.687
2643.9282,100.693
2644.8923,100.697
2645.8567,100.7
2646.8208,100.701
2647.7852,100.703
2648.7493,100.704
2649.7136,100.706
2650.6777,100.708
2651.6421,100.712
2652.6062,100.716
2653.5706,100.723
2654.5347,100.731
2655.4990,100.74
2656.4631,100.75
2657.4275,100.762
2658.3916,100.774
2659.3560,100.786
2660.3201,100.796
2661.2844,100.804
2662.2485,100.81
2663.2129,100.814
2664.1770,100.82
2665.1414,100.828
2666.1055,100.839
2667.0698,100.852
2668.0339,100.864
2668.9983,100.875
2669.9624,100.884
2670.9268,100.892
2671.8909,100.899
2672.8552,100.907
2673.8193,100.919
2674.7837,100.934
2675.7478,100.949
2676.7122,100.962
2677.6763,100.969
2678.6406,100.968
2679.6047,100.96
2680.5691,100.948
2681.5332,100.937
2682.4976,100.931
2683.4617,100.93
2684.4260,100.933
2685.3901,100.937
2686.3545,100.939
2687.3186,100.939
2688.2830,100.939
2689.2471,100.942
2690.2114,100.95
2691.1755,100.963
2692.1399,100.977
2693.1040,100.991
2694.0684,101.001
2695.0325,101.007
2695.9968,101.008
2696.9609,101.006
2697.9253,101.004
2698.8894,101.004
2699.8538,101.005
2700.8179,101.008
2701.7822,101.011
2702.7463,101.013
2703.7107,101.012
2704.6748,101.008
2705.6392,101
2706.6033,100.991
2707.5676,100.981
2708.5317,100.974
2709.4961,100.97
2710.4602,100.969
2711.4246,100.97
2712.3887,100.97
2713.3530,100.967
2714.3171,100.959
2715.2815,100.946
2716.2456,100.931
2717.2100,100.915
2718.1741,100.903
2719.1384,100.898
2720.1025,100.898
2721.0669,100.902
2722.0310,100.906
2722.9954,100.908
2723.9595,100.905
2724.9238,100.898
2725.8879,100.887
2726.8523,100.875
2727.8164,100.864
2728.7808,100.856
2729.7449,100.852
2730.7092,100.851
2731.6733,100.853
2732.6377,100.857
2733.6018,100.859
2734.5662,100.86
2735.5303,100.859
2736.4946,100.855
2737.4587,100.848
2738.4231,100.841
2739.3872,100.834
2740.3516,100.831
2741.3157,100.833
2742.2800,100.842
2743.2441,100.856
2744.2085,100.874
2745.1726,100.894
2746.1370,100.912
2747.1011,100.924
2748.0654,100.928
2749.0295,100.924
2749.9939,100.916
2750.9580,100.909
2751.9224,100.908
2752.8865,100.913
2753.8508,100.921
2754.8149,100.926
2755.7793,100.926
2756.7434,100.918
2757.7078,100.905
2758.6719,100.89
2759.6362,100.876
2760.6003,100.864
2761.5647,100.854
2762.5288,100.845
2763.4932,100.836
2764.4573,100.828
2765.4216,100.823
2766.3857,100.82
2767.3501,100.819
2768.3142,100.818
2769.2786,100.815
2770.2427,100.81
2771.2070,100.799
2772.1711,100.781
2773.1355,100.756
2774.0996,100.725
2775.0640,100.691
2776.0281,100.656
2776.9924,100.622
2777.9565,100.589
2778.9209,100.557
2779.8850,100.523
2780.8494,100.486
2781.8135,100.447
2782.7778,100.409
2783.7419,100.373
2784.7063,100.341
2785.6704,100.313
2786.6348,100.285
2787.5989,100.254
2788.5632,100.219
2789.5273,100.18
2790.4917,100.139
2791.4558,100.1
2792.4202,100.066
2793.3843,100.037
2794.3486,100.01
2795.3127,99.9813
2796.2771,99.9469
2797.2412,99.9047
2798.2056,99.8547
2799.1697,99.7996
2800.1340,99.7425
2801.0981,99.6864
2802.0625,99.6323
2803.0266,99.5797
2803.9910,99.5273
2804.9551,99.4733
2805.9194,99.4161
2806.8835,99.3545
2807.8479,99.2872
2808.8120,99.2131
2809.7764,99.1305
2810.7405,99.0337
2811.7048,98.9303
2812.6689,98.8218
2813.6333,98.7096
2814.5974,98.5947
2815.5618,98.4762
2816.5259,98.3526
2817.4902,98.2215
2818.4543,98.0801
2819.4187,97.9264
2820.3828,97.7588
2821.3472,97.5764
2822.3113,97.3788
2823.2756,97.1668
2824.2397,96.9412
2825.2041,96.7032
2826.1682,96.453
2827.1326,96.1893
2828.0967,95.9096
2829.0610,95.6108
2830.0251,95.2905
2830.9895,94.9487
2831.9536,94.5884
2832.9180,94.2145
2833.8821,93.8328
2834.8464,93.448
2835.8105,93.0631
2836.7749,92.679
2837.7390,92.2962
2838.7034,91.9153
2839.6675,91.5368
2840.6318,91.1598
2841.5959,90.7799
2842.5603,90.3896
2843.5244,89.9818
2844.4888,89.5552
2845.4529,89.12
2846.4172,88.6982
2847.3813,88.3185
2848.3457,88.0052
2849.3098,87.7682
2850.2742,87.5985
2851.2383,87.4724
2852.2026,87.362
2853.1667,87.2461
2854.1311,87.1152
2855.0952,86.9707
2856.0596,86.8179
2857.0237,86.6603
2857.9880,86.4966
2858.9521,86.3214
2859.9165,86.1294
2860.8806,85.9177
2861.8450,85.6872
2862.8091,85.4425
2863.7734,85.1903
2864.7375,84.9387
2865.7019,84.6956
2866.6660,84.4677
2867.6304,84.2595
2868.5945,84.0731
2869.5588,83.9087
2870.5229,83.7647
2871.4873,83.6386
2872.4514,83.5264
2873.4158,83.4236
2874.3799,83.3251
2875.3442,83.2262
2876.3083,83.123
2877.2727,83.012
2878.2368,82.8908
2879.2012,82.7589
2880.1653,82.6197
2881.1296,82.4812
2882.0938,82.3553
2883.0581,82.2546
2884.0222,82.1873
2884.9866,82.1538
2885.9507,82.1448
2886.9150,82.1433
2887.8792,82.1295
2888.8435,82.0882
2889.8076,82.0156
2890.7720,81.9216
2891.7361,81.8242
2892.7004,81.7372
2893.6646,81.6573
2894.6289,81.5592
2895.5930,81.4059
2896.5574,81.1707
2897.5215,80.8591
2898.4858,80.5143
2899.4500,80.2024
2900.4143,79.9822
2901.3784,79.8772
2902.3428,79.8669
2903.3069,79.8998
2904.2712,79.9193
2905.2354,79.887
2906.1997,79.7901
2907.1638,79.6362
2908.1282,79.4404
2909.0923,79.2167
2910.0566,78.976
2911.0208,78.7285
2911.9851,78.485
2912.9492,78.2562
2913.9136,78.0507
2914.8777,77.8727
2915.8420,77.723
2916.8062,77.6
2917.7705,77.5002
2918.7346,77.4191
2919.6990,77.3515
2920.6631,77.2926
2921.6274,77.2394
2922.5916,77.1908
2923.5559,77.1475
2924.5200,77.1107
2925.4844,77.083
2926.4485,77.0679
2927.4128,77.0697
2928.3770,77.0926
2929.3413,77.1379
2930.3054,77.2038
2931.2698,77.2855
2932.2339,77.379
2933.1982,77.484
2934.1624,77.6038
2935.1267,77.7439
2936.0908,77.9077
2937.0552,78.0935
2938.0193,78.2942
2938.9836,78.5002
2939.9478,78.7039
2940.9121,78.9035
2941.8762,79.1023
2942.8406,79.3053
2943.8047,79.5131
2944.7690,79.7186
2945.7332,79.9076
2946.6975,80.0641
2947.6616,80.1769
2948.6260,80.2446
2949.5901,80.2751
2950.5544,80.2811
2951.5186,80.2738
2952.4829,80.26
2953.4470,80.2415
2954.4114,80.2191
2955.3755,80.1954
2956.3398,80.1759
2957.3040,80.167
2958.2683,80.1729
2959.2324,80.1924
2960.1968,80.2191
2961.1609,80.2433
2962.1252,80.2568
2963.0894,80.2557
2964.0537,80.2422
2965.0178,80.2229
2965.9822,80.2063
2966.9463,80.2005
2967.9106,80.213
2968.8748,80.2519
2969.8391,80.3262
2970.8032,80.4442
2971.7676,80.6099
2972.7317,80.82
2973.6960,81.0634
2974.6602,81.3255
2975.6245,81.5931
2976.5886,81.8593
2977.5530,82.1236
2978.5171,82.3901
2979.4814,82.662
2980.4456,82.9364
2981.4099,83.2015
2982.3740,83.4375
2983.3384,83.6254
2984.3025,83.7592
2985.2668,83.8594
2986.2310,83.9757
2987.1953,84.1735
2988.1594,84.5075
2989.1238,84.9929
2990.0879,85.5933
2991.0522,86.2329
2992.0164,86.8288
2992.9807,87.3251
2993.9448,87.712
2994.9092,88.0199
2995.8733,88.2963
2996.8376,88.5797
2997.8018,88.8866
2998.7661,89.2145
2999.7302,89.5529
3000.6946,89.8946
3001.6587,90.2388
3002.6230,90.5887
3003.5872,90.9467
3004.5515,91.3124
3005.5156,91.6825
3006.4800,92.0528
3007.4441,92.4188
3008.4084,92.7761
3009.3726,93.1216
3010.3369,93.4541
3011.3010,93.7752
3012.2654,94.0882
3013.2295,94.3953
3014.1938,94.6965
3015.1580,94.9883
3016.1223,95.2661
3017.0864,95.5266
3018.0508,95.7689
3019.0149,95.9949
3019.9792,96.2082
3020.9434,96.412
3021.9077,96.6091
3022.8718,96.8006
3023.8362,96.9859
3024.8003,97.163
3025.7646,97.3294
3026.7288,97.4829
3027.6931,97.624
3028.6572,97.7556
3029.6216,97.882
3030.5857,98.0064
3031.5500,98.1292
3032.5142,98.2478
3033.4785,98.3588
3034.4426,98.4606
3035.4070,98.5543
3036.3711,98.643
3037.3354,98.7285
3038.2996,98.8095
3039.2639,98.8814
3040.2280,98.9384
3041.1924,98.9767
3042.1565,98.9974
3043.1208,99.0061
3044.0850,99.0113
3045.0493,99.0206
3046.0134,99.0378
3046.9778,99.0382
3047.9419,99.0331
3048.9063,99.019
3049.8704,98.9899
3050.8347,98.9453
3051.7988,98.8903
3052.7632,98.8326
3053.7273,98.7802
3054.6917,98.7375
3055.6558,98.7059
3056.6201,98.6835
3057.5842,98.6664
3058.5486,98.65
3059.5127,98.6286
3060.4771,98.5973
3061.4412,98.553
3062.4055,98.4971
3063.3696,98.4358
3064.3340,98.3781
3065.2981,98.3315
3066.2625,98.2985
3067.2266,98.2758
3068.1909,98.2567
3069.1550,98.2354
3070.1194,98.2094
3071.0835,98.1795
3072.0479,98.1473
3073.0120,98.1132
3073.9763,98.0759
3074.9404,98.0341
3075.9048,97.9876
3076.8689,97.939
3077.8333,97.892
3078.7974,97.8496
3079.7617,97.8124
3080.7258,97.7782
3081.6902,97.7433
3082.6543,97.7044
3083.6187,97.6602
3084.5828,97.6119
3085.5471,97.5617
3086.5112,97.5122
3087.4756,97.4642
3088.4397,97.4163
3089.4041,97.3651
3090.3682,97.3073
3091.3325,97.2412
3092.2966,97.1681
3093.2610,97.0917
3094.2251,97.0162
3095.1895,96.9443
3096.1536,96.8761
3097.1179,96.8098
3098.0820,96.7431
3099.0464,96.6752
3100.0105,96.6071
3100.9749,96.5411
3101.9390,96.4789
3102.9033,96.421
3103.8674,96.3659
3104.8318,96.3114
3105.7959,96.255
3106.7603,96.1943
3107.7244,96.1281
3108.6887,96.0564
3109.6528,95.9801
3110.6172,95.9014
3111.5813,95.823
3112.5457,95.747
3113.5098,95.6741
3114.4741,95.6037
3115.4382,95.5343
3116.4026,95.4646
3117.3667,95.3945
3118.3311,95.3254
3119.2952,95.259
3120.2595,95.1964
3121.2236,95.1369
3122.1880,95.0784
3123.1521,95.0188
3124.1165,94.9566
3125.0806,94.8912
3126.0449,94.8227
3127.0090,94.7504
3127.9734,94.6734
3128.9375,94.5915
3129.9019,94.5067
3130.8660,94.4233
3131.8303,94.3468
3132.7944,94.2804
3133.7588,94.2237
3134.7229,94.1718
3135.6873,94.1181
3136.6514,94.0572
3137.6157,93.9871
3138.5798,93.9096
3139.5442,93.8286
3140.5083,93.7478
3141.4727,93.6697
3142.4368,93.5947
3143.4011,93.5212
3144.3652,93.4472
3145.3296,93.3713
3146.2937,93.2937
3147.2581,93.2165
3148.2222,93.1424
3149.1865,93.0731
3150.1506,93.0073
3151.1150,92.9416
3152.0791,92.8717
3153.0435,92.7952
3154.0076,92.7129
3154.9719,92.628
3155.9360,92.544
3156.9004,92.4625
3157.8645,92.3827
3158.8289,92.303
3159.7930,92.2227
3160.7573,92.1432
3161.7214,92.0668
3162.6858,91.9944
3163.6499,91.9247
3164.6143,91.854
3165.5784,91.7786
3166.5427,91.6976
3167.5068,91.6133
3168.4712,91.5302
3169.4353,91.4813
3170.3997,91.4076
3171.3638,91.3347
3172.3281,91.2577
3173.2922,91.1734
3174.2566,91.083
3175.2207,90.9914
3176.1851,90.9049
3177.1492,90.8271
3178.1135,90.757
3179.0776,90.69
3180.0420,90.6213
3181.0061,90.5486
3181.9705,90.4737
3182.9346,90.4009
3183.8989,90.3331
3184.8630,90.2698
3185.8274,90.2071
3186.7915,90.1402
3187.7559,90.0666
3188.7200,89.9879
3189.6843,89.9089
3190.6484,89.8337
3191.6128,89.7636
3192.5769,89.6962
3193.5413,89.6278
3194.5054,89.5556
3195.4697,89.4798
3196.4338,89.4029
3197.3982,89.3283
3198.3623,89.2579
3199.3267,89.1919
3200.2908,89.1295
3201.2551,89.0697
3202.2192,89.0115
3203.1836,88.9537
3204.1477,88.8948
3205.1121,88.8334
3206.0762,88.7694
3207.0405,88.7039
3208.0046,88.6388
3208.9690,88.5752
3209.9331,88.5129
3210.8975,88.4505
3211.8616,88.3874
3212.8259,88.3245
3213.7900,88.2645
3214.7544,88.21
3215.7185,88.1616
3216.6829,88.1168
3217.6470,88.0709
3218.6113,88.0186
3219.5754,87.9565
3220.5398,87.885
3221.5039,87.8082
3222.4683,87.732
3223.4324,87.6626
3224.3967,87.6038
3225.3608,87.5564
3226.3252,87.5181
3227.2893,87.4846
3228.2537,87.4517
3229.2178,87.4161
3230.1821,87.3758
3231.1462,87.3297
3232.1106,87.2777
3233.0747,87.221
3234.0391,87.162
3235.0032,87.1043
3235.9675,87.0516
3236.9316,87.0058
3237.8960,86.9658
3238.8601,86.9285
3239.8245,86.89
3240.7886,86.8483
3241.7529,86.8036
3242.7170,86.758
3243.6814,86.7138
3244.6455,86.6716
3245.6099,86.6305
3246.5740,86.5886
3247.5383,86.5447
3248.5024,86.4985
3249.4668,86.4509
3250.4309,86.4023
3251.3953,86.3537
3252.3594,86.3056
3253.3237,86.259
3254.2878,86.2152
3255.2522,86.1748
3256.2163,86.1381
3257.1807,86.1042
3258.1448,86.0719
3259.1091,86.0395
3260.0732,86.0053
3261.0376,85.9681
3262.0017,85.9278
3262.9661,85.8858
3263.9302,85.8442
3264.8945,85.8052
3265.8586,85.7689
3266.8230,85.733
3267.7871,85.6936
3268.7515,85.6478
3269.7156,85.596
3270.6799,85.5425
3271.6440,85.4938
3272.6084,85.4549
3273.5725,85.4269
3274.5369,85.4058
3275.5010,85.3857
3276.4653,85.3612
3277.4294,85.3305
3278.3938,85.2953
3279.3579,85.2592
3280.3223,85.2253
3281.2864,85.1946
3282.2507,85.1659
3283.2148,85.1369
3284.1792,85.1055
3285.1433,85.0707
3286.1077,85.0328
3287.0718,84.9934
3288.0361,84.9542
3289.0002,84.9173
3289.9646,84.8844
3290.9287,84.8569
3291.8931,84.8353
3292.8572,84.819
3293.8215,84.8066
3294.7856,84.7952
3295.7500,84.7816
3296.7141,84.7625
3297.6785,84.7355
3298.6426,84.7003
3299.6069,84.6592
3300.5710,84.6162
3301.5354,84.575
3302.4995,84.5384
3303.4639,84.5065
3304.4280,84.4783
3305.3923,84.4524
3306.3564,84.4284
3307.3208,84.4069
3308.2849,84.3882
3309.2493,84.3719
3310.2134,84.3563
3311.1777,84.3399
3312.1418,84.3218
3313.1062,84.3024
3314.0703,84.2828
3315.0347,84.2642
3315.9988,84.2467
3316.9631,84.2302
3317.9272,84.214
3318.8916,84.1972
3319.8557,84.1789
3320.8201,84.1584
3321.7842,84.1351
3322.7485,84.1092
3323.7126,84.0813
3324.6770,84.052
3325.6411,84.0214
3326.6055,83.9894
3327.5696,83.9557
3328.5339,83.9209
3329.4980,83.8864
3330.4624,83.8547
3331.4265,83.8281
3332.3909,83.8089
3333.3550,83.7983
3334.3193,83.7965
3335.2834,83.8021
3336.2478,83.8113
3337.2119,83.819
3338.1763,83.82
3339.1404,83.8107
3340.1047,83.7911
3341.0688,83.7641
3342.0332,83.7345
3342.9973,83.7072
3343.9617,83.6859
3344.9258,83.6722
3345.8901,83.6663
3346.8542,83.6668
3347.8186,83.6715
3348.7827,83.6769
3349.7471,83.6796
3350.7112,83.677
3351.6755,83.668
3352.6396,83.6538
3353.6040,83.6369
3354.5681,83.6204
3355.5325,83.6071
3356.4966,83.5987
3357.4609,83.5958
3358.4250,83.5971
3359.3894,83.5995
3360.3535,83.5988
3361.3179,83.5913
3362.2820,83.5761
3363.2463,83.5564
3364.2104,83.539
3365.1748,83.5309
3366.1389,83.5355
3367.1033,83.5506
3368.0674,83.5694
3369.0317,83.5844
3369.9958,83.591
3370.9602,83.589
3371.9243,83.5815
3372.8887,83.5716
3373.8528,83.5615
3374.8171,83.5516
3375.7813,83.5425
3376.7456,83.5354
3377.7097,83.532
3378.6741,83.533
3379.6382,83.537
3380.6025,83.5416
3381.5667,83.5446
3382.5310,83.5459
3383.4951,83.5475
3384.4595,83.5523
3385.4236,83.562
3386.3879,83.5765
3387.3521,83.5946
3388.3164,83.6154
3389.2805,83.6384
3390.2449,83.663
3391.2090,83.6884
3392.1733,83.7136
3393.1375,83.7386
3394.1018,83.7657
3395.0659,83.7978
3396.0303,83.8361
3396.9944,83.8771
3397.9587,83.9135
3398.9229,83.9369
3399.8872,83.9436
3400.8513,83.9376
3401.8157,83.9285
3402.7798,83.9269
3403.7441,83.939
3404.7083,83.9649
3405.6726,84.0003
3406.6367,84.0405
3407.6011,84.0828
3408.5652,84.1259
3409.5295,84.1684
3410.4937,84.2073
3411.4580,84.2387
3412.4221,84.2605
3413.3865,84.274
3414.3506,84.284
3415.3149,84.2962
3416.2791,84.315
3417.2434,84.3432
3418.2075,84.382
3419.1719,84.4314
3420.1360,84.49
3421.1003,84.5536
3422.0645,84.6161
3423.0288,84.6724
3423.9929,84.7205
3424.9573,84.7632
3425.9214,84.8059
3426.8857,84.854
3427.8499,84.9099
3428.8142,84.9714
3429.7783,85.034
3430.7427,85.0933
3431.7068,85.1477
3432.6711,85.1982
3433.6353,85.2477
3434.5996,85.299
3435.5637,85.3531
3436.5281,85.4097
3437.4922,85.4669
3438.4565,85.5219
3439.4207,85.5717
3440.3850,85.6137
3441.3491,85.6482
3442.3135,85.6787
3443.2776,85.712
3444.2419,85.7552
3445.2061,85.8128
3446.1704,85.8835
3447.1345,85.9606
3448.0989,86.036
3449.0630,86.1054
3450.0273,86.1708
3450.9915,86.2373
3451.9558,86.3082
3452.9199,86.3819
3453.8843,86.4524
3454.8484,86.5139
3455.8127,86.5651
3456.7769,86.611
3457.7412,86.6599
3458.7053,86.7179
3459.6697,86.7861
3460.6338,86.8601
3461.5981,86.9336
3462.5623,87.0029
3463.5266,87.0688
3464.4907,87.1362
3465.4551,87.2102
3466.4192,87.2927
3467.3835,87.3804
3468.3477,87.4659
3469.3120,87.5413
3470.2761,87.6027
3471.2405,87.6522
3472.2046,87.6976
3473.1689,87.7479
3474.1331,87.8084
3475.0974,87.8781
3476.0615,87.9511
3477.0259,88.0217
3477.9900,88.0886
3478.9543,88.1554
3479.9185,88.2267
3480.8828,88.303
3481.8469,88.3792
3482.8113,88.4482
3483.7754,88.5071
3484.7397,88.5614
3485.7039,88.6221
3486.6682,88.6993
3487.6323,88.7956
3488.5967,88.9038
3489.5608,89.0111
3490.5251,89.1063
3491.4893,89.1853
3492.4536,89.2521
3493.4177,89.3145
3494.3821,89.38
3495.3462,89.4509
3496.3105,89.5239
3497.2747,89.593
3498.2390,89.6555
3499.2031,89.7148
3500.1675,89.7801
3501.1316,89.8619
3502.0959,89.965
3503.0601,90.0823
3504.0244,90.1977
3504.9885,90.2974
3505.9529,90.3786
3506.9170,90.449
3507.8813,90.5203
3508.8455,90.6005
3509.8098,90.6915
3510.7739,90.7888
3511.7383,90.8872
3512.7024,90.9848
3513.6667,91.0824
3514.6309,91.1806
3515.5952,91.2765
3516.5593,91.3647
3517.5237,91.4418
3518.4878,91.5085
3519.4521,91.5705
3520.4163,91.635
3521.3806,91.7069
3522.3447,91.7869
3523.3091,91.8725
3524.2732,91.9609
3525.2375,92.053
3526.2017,92.1538
3527.1660,92.2683
3528.1301,92.396
3529.0945,92.5289
3530.0586,92.6545
3531.0229,92.7641
3531.9871,92.8575
3532.9514,92.9427
3533.9155,93.0319
3534.8799,93.1356
3535.8440,93.2578
3536.8083,93.392
3537.7725,93.5237
3538.7368,93.6379
3539.7009,93.7268
3540.6653,93.7934
3541.6294,93.8503
3542.5938,93.917
3543.5579,94.015
3544.5222,94.1564
3545.4863,94.3315
3546.4507,94.5109
3547.4148,94.6659
3548.3792,94.789
3549.3433,94.8947
3550.3076,95.006
3551.2717,95.1404
3552.2361,95.2992
3553.2002,95.4674
3554.1646,95.6243
3555.1287,95.7575
3556.0930,95.8691
3557.0571,95.968
3558.0215,96.0623
3558.9856,96.153
3559.9500,96.2361
3560.9141,96.3067
3561.8784,96.3653
3562.8425,96.4185
3563.8069,96.4792
3564.7710,96.5702
3565.7354,96.7239
3566.6995,96.9522
3567.6638,97.2083
3568.6279,97.4191
3569.5923,97.554
3570.5564,97.6353
3571.5208,97.6998
3572.4849,97.7706
3573.4492,97.8526
3574.4133,97.9398
3575.3777,98.0254
3576.3418,98.1069
3577.3062,98.1856
3578.2703,98.2626
3579.2346,98.3348
3580.1987,98.3969
3581.1631,98.4461
3582.1272,98.4856
3583.0916,98.5221
3584.0557,98.5618
3585.0200,98.6114
3585.9841,98.6842
3586.9485,98.7894
3587.9126,98.9054
3588.8770,98.9887
3589.8411,99.019
3590.8054,99.0125
3591.7695,98.9962
3592.7339,98.9873
3593.6980,98.9909
3594.6624,99.0044
3595.6265,99.0221
3596.5908,99.0416
3597.5549,99.0694
3598.5193,99.1181
3599.4834,99.1952
3600.4478,99.294
3601.4119,99.3951
3602.3762,99.4812
3603.3403,99.5489
3604.3047,99.6066
3605.2688,99.6653
3606.2332,99.7328
3607.1973,99.8109
3608.1616,99.8914
3609.1257,99.9566
3610.0901,99.99
3611.0542,99.9887
3612.0186,99.9636
3612.9829,99.9181
3613.9470,99.8765
3614.9114,99.8531
3615.8755,99.8527
3616.8398,99.8764
3617.8040,99.9229
3618.7683,99.9804
3619.7324,100.018
3620.6968,99.9993
3621.6609,99.9186
3622.6252,99.8112
3623.5894,99.7264
3624.5537,99.6948
3625.5178,99.7143
3626.4822,99.7593
3627.4463,99.8113
3628.4106,99.8705
3629.3748,99.9157
3630.3391,99.9056
3631.3032,99.8414
3632.2676,99.7665
3633.2317,99.718
3634.1960,99.7028
3635.1602,99.7043
3636.1245,99.7005
3637.0886,99.6792
3638.0530,99.6399
3639.0171,99.5869
3639.9814,99.5229
3640.9456,99.4493
3641.9099,99.3705
3642.8740,99.2965
3643.8384,99.2357
3644.8025,99.1814
3645.7668,99.1048
3646.7310,98.9787
3647.6953,98.8475
3648.6594,98.8335
3649.6238,98.9417
3650.5879,99.0151
3651.5522,98.9732
3652.5164,98.8602
3653.4807,98.7396
3654.4448,98.6406
3655.4092,98.5617
3656.3733,98.49
3657.3376,98.4155
3658.3018,98.3386
3659.2661,98.2723
3660.2302,98.2314
3661.1946,98.2189
3662.1587,98.2234
3663.1230,98.2302
3664.0872,98.2336
3665.0515,98.2369
3666.0156,98.2407
3666.9800,98.2334
3667.9441,98.2029
3668.9084,98.1577
3669.8726,98.119
3670.8369,98.0909
3671.8010,98.0618
3672.7654,98.0249
3673.7295,97.9895
3674.6938,97.9923
3675.6580,98.0745
3676.6223,98.2139
3677.5864,98.3361
3678.5508,98.4011
3679.5149,98.4178
3680.4792,98.404
3681.4434,98.3693
3682.4077,98.3228
3683.3718,98.281
3684.3362,98.2612
3685.3003,98.2653
3686.2646,98.2713
3687.2288,98.2517
3688.1931,98.216
3689.1572,98.216
3690.1216,98.2746
3691.0857,98.3547
3692.0500,98.4215
3693.0142,98.4757
3693.9785,98.5326
3694.9426,98.6035
3695.9070,98.692
3696.8711,98.7976
3697.8354,98.9171
3698.7996,99.045
3699.7639,99.1737
3700.7280,99.2946
3701.6924,99.3964
3702.6565,99.466
3703.6208,99.4974
3704.5850,99.4992
3705.5493,99.489
3706.5134,99.4785
3707.4778,99.4683
3708.4419,99.4614
3709.4063,99.4914
3710.3704,99.617
3711.3347,99.8413
3712.2988,100.066
3713.2632,100.191
3714.2273,100.202
3715.1917,100.143
3716.1558,100.056
3717.1201,99.9627
3718.0842,99.8648
3719.0486,99.7607
3720.0127,99.6564
3720.9771,99.5671
3721.9412,99.5113
3722.9055,99.5009
3723.8696,99.534
3724.8340,99.591
3725.7981,99.6421
3726.7625,99.6646
3727.7266,99.6555
3728.6909,99.6263
3729.6550,99.5858
3730.6194,99.5299
3731.5835,99.4456
3732.5479,99.3368
3733.5120,99.2527
3734.4763,99.2678
3735.4404,99.3844
3736.4048,99.5044
3737.3689,99.5497
3738.3333,99.5405
3739.2974,99.5495
3740.2617,99.6339
3741.2258,99.8274
3742.1902,100.032
3743.1543,100.152
3744.1187,100.118
3745.0828,99.9439
3746.0471,99.7066
3747.0112,99.4924
3747.9756,99.356
3748.9397,99.3207
3749.9041,99.3943
3750.8682,99.5441
3751.8325,99.6663
3752.7966,99.6748
3753.7610,99.5875
3754.7251,99.4765
3755.6895,99.3958
3756.6536,99.3634
3757.6179,99.3752
3758.5820,99.4164
3759.5464,99.4642
3760.5105,99.4973
3761.4749,99.5107
3762.4390,99.5145
3763.4033,99.5207
3764.3674,99.5348
3765.3318,99.5551
3766.2959,99.5773
3767.2603,99.5991
3768.2244,99.6225
3769.1887,99.6516
3770.1528,99.6848
3771.1172,99.7114
3772.0813,99.7208
3773.0457,99.7129
3774.0098,99.697
3774.9741,99.6812
3775.9382,99.6656
3776.9026,99.6462
3777.8667,99.6234
3778.8311,99.6023
3779.7952,99.5828
3780.7595,99.5601
3781.7236,99.5336
3782.6880,99.5117
3783.6521,99.5067
3784.6165,99.5272
3785.5806,99.5717
3786.5449,99.628
3787.5090,99.6789
3788.4734,99.7125
3789.4375,99.727
3790.4019,99.7282
3791.3660,99.7219
3792.3303,99.7082
3793.2944,99.6818
3794.2588,99.6401
3795.2229,99.5913
3796.1873,99.5522
3797.1514,99.5369
3798.1157,99.5449
3799.0798,99.5619
3800.0442,99.5732
3801.0083,99.5764
3801.9727,99.5765
3802.9368,99.5803
3803.9011,99.6003
3804.8652,99.649
3805.8296,99.7229
3806.7937,99.7958
3807.7581,99.8305
3808.7222,99.809
3809.6865,99.7538
3810.6506,99.7118
3811.6150,99.7162
3812.5791,99.7616
3813.5435,99.8092
3814.5076,99.8174
3815.4719,99.7736
3816.4360,99.698
3817.4004,99.6231
3818.3645,99.5756
3819.3289,99.5701
3820.2930,99.6044
3821.2573,99.6499
3822.2214,99.6648
3823.1858,99.6329
3824.1499,99.5784
3825.1143,99.539
3826.0784,99.5374
3827.0427,99.5724
3828.0068,99.626
3828.9712,99.6765
3829.9353,99.7104
3830.8997,99.7265
3831.8638,99.7319
3832.8281,99.7343
3833.7922,99.7332
3834.7566,99.7179
3835.7207,99.674
3836.6851,99.6011
3837.6492,99.5245
3838.6135,99.4817
3839.5776,99.493
3840.5420,99.5526
3841.5061,99.6423
3842.4705,99.7379
3843.4346,99.8093
3844.3989,99.8288
3845.3630,99.7891
3846.3274,99.7146
3847.2915,99.6534
3848.2559,99.654
3849.2200,99.7402
3850.1843,99.8943
3851.1484,100.064
3852.1128,100.21
3853.0769,100.327
3854.0413,100.368
3855.0054,100.27
3855.9697,100.076
3856.9338,99.889
3857.8982,99.7784
3858.8623,99.7531
3859.8267,99.7787
3860.7908,99.8057
3861.7551,99.8032
3862.7192,99.7804
3863.6836,99.771
3864.6477,99.796
3865.6121,99.8483
3866.5762,99.9056
3867.5405,99.944
3868.5046,99.9485
3869.4690,99.9237
3870.4331,99.8928
3871.3975,99.8777
3872.3616,99.8822
3873.3259,99.8965
3874.2900,99.9131
3875.2544,99.9321
3876.2185,99.9545
3877.1829,99.9742
3878.1470,99.9792
3879.1113,99.9622
3880.0754,99.9326
3881.0398,99.9143
3882.0039,99.9307
3882.9683,99.9898
3883.9324,100.078
3884.8967,100.165
3885.8608,100.219
3886.8252,100.222
3887.7893,100.186
3888.7537,100.131
3889.7178,100.079
3890.6821,100.043
3891.6462,100.032
3892.6106,100.038
3893.5747,100.045
3894.5391,100.052
3895.5032,100.062
3896.4675,100.077
3897.4316,100.081
3898.3960,100.067
3899.3601,100.039
3900.3245,100.016
3901.2886,100.014
3902.2529,100.033
3903.2170,100.068
3904.1814,100.102
3905.1455,100.123
3906.1099,100.126
3907.0740,100.119
3908.0383,100.113
3909.0024,100.112
3909.9668,100.112
3910.9309,100.11
3911.8953,100.107
3912.8594,100.108
3913.8237,100.116
3914.7878,100.131
3915.7522,100.149
3916.7163,100.166
3917.6807,100.177
3918.6448,100.175
3919.6091,100.158
3920.5732,100.129
3921.5376,100.095
3922.5017,100.065
3923.4661,100.042
3924.4302,100.027
3925.3945,100.016
3926.3586,100.005
3927.3230,99.9952
3928.2871,99.991
3929.2515,99.9984
3930.2156,100.024
3931.1799,100.07
3932.1440,100.131
3933.1084,100.192
3934.0725,100.236
3935.0369,100.258
3936.0010,100.259
3936.9653,100.244
3937.9294,100.217
3938.8938,100.183
3939.8579,100.148
3940.8223,100.123
3941.7864,100.119
3942.7507,100.137
3943.7148,100.167
3944.6792,100.193
3945.6433,100.203
3946.6077,100.192
3947.5718,100.165
3948.5361,100.137
3949.5002,100.123
3950.4646,100.13
3951.4287,100.155
3952.3931,100.187
3953.3572,100.217
3954.3215,100.238
3955.2856,100.246
3956.2500,100.243
3957.2141,100.235
3958.1785,100.228
3959.1426,100.231
3960.1069,100.245
3961.0710,100.27
3962.0354,100.298
3962.9995,100.321
3963.9639,100.333
3964.9280,100.329
3965.8923,100.314
3966.8564,100.294
3967.8208,100.275
3968.7849,100.258
3969.7493,100.244
3970.7134,100.231
3971.6777,100.222
3972.6418,100.219
3973.6062,100.225
3974.5703,100.241
3975.5347,100.262
3976.4988,100.281
3977.4631,100.293
3978.4272,100.296
3979.3916,100.294
3980.3557,100.291
3981.3201,100.291
3982.2842,100.295
3983.2485,100.299
3984.2126,100.302
3985.1770,100.301
3986.1411,100.295
3987.1055,100.288
3988.0696,100.278
3989.0339,100.265
3989.9980,100.25
3990.9624,100.235
3991.9265,100.227
3992.8909,100.231
3993.8550,100.251
3994.8193,100.281
3995.7834,100.313
3996.7478,100.337
3997.7119,100.348
3998.6763,100.347
3999.6404,100.34
4000.6047,100.211

##### Extended Information
[Comments]
Sample name
Comment
User
Division
Company,HANKYONG

[Detailed Information]
Creation date,4/24/2024 10:43 AM

Data array type,Linear data array
Horizontal axis,Wavenumber [cm-1]
Vertical axis,%T
Start,649.893 cm-1
End,4000.6 cm-1
Data interval,0.964233 cm-1
Data points,3476    

[Measurement Information]
Model Name,FT/IR-4700typeA
Serial Number,D056761788

Accessory,ATR PRO ONE
Accessory S/N,C174761809
Incident angle,45 deg

Measurement Date,4/24/2024 10:43 AM

Light Source,Standard
Detector,TGS
Accumulation,32
Resolution,4 cm-1
Zero Filling,On
Apodization,Cosine
Gain,Auto (4)
Aperture,Auto (7.1 mm)
Scanning Speed,Auto (2 mm/sec)
Filter,Auto (30000 Hz)

