TITLE,
DATA TYPE,INFRARED SPECTRUM
ORIGIN,JASCO
OWNER,
DATE,24/04/24
TIME,11:21:02
SPECTROMETER/DATA SYSTEM,
LOCALE,1033
RESOLUTION,
DELTAX,0.964233
XUNITS,1/CM
YUNITS,TRANSMITTANCE
FIRSTX,  649.8934
LASTX, 4000.6047
NPOINTS,    3476
FIRSTY,    99.84499
MAXY,   101.04824
MINY,    61.00116
XYDATA
649.8934,99.845
650.8576,99.6848
651.8218,99.5297
652.7861,99.4185
653.7503,99.3767
654.7145,99.4001
655.6788,99.4514
656.6430,99.3858
657.6072,99.2456
658.5715,99.051
659.5357,98.848
660.4999,98.6978
661.4642,98.6327
662.4284,98.6295
663.3926,98.6201
664.3569,98.5191
665.3211,98.2399
666.2853,97.714
667.2496,96.9734
668.2138,96.2832
669.1780,96.0082
670.1423,96.1809
671.1065,96.5343
672.0707,96.8488
673.0350,97.0388
673.9992,97.0951
674.9634,97.0461
675.9277,96.9453
676.8919,96.854
677.8561,96.8158
678.8204,96.8403
679.7846,96.908
680.7488,96.9862
681.7131,97.0465
682.6773,97.0782
683.6415,97.0919
684.6058,97.1129
685.5700,97.1658
686.5342,97.2588
687.4985,97.3758
688.4627,97.4823
689.4269,97.5394
690.3912,97.5224
691.3554,97.4382
692.3196,97.3356
693.2839,97.2909
694.2481,97.3527
695.2123,97.5004
696.1766,97.6733
697.1408,97.816
698.1050,97.8939
699.0693,97.894
700.0335,97.8244
700.9977,97.7095
701.9620,97.5809
702.9262,97.4661
703.8904,97.3822
704.8547,97.334
705.8189,97.315
706.7831,97.311
707.7474,97.3042
708.7116,97.2771
709.6758,97.2144
710.6401,97.1045
711.6043,96.9392
712.5685,96.7136
713.5328,96.4266
714.4970,96.0828
715.4612,95.8165
716.4255,95.4024
717.3897,95.0174
718.3539,94.721
719.3182,94.5699
720.2824,94.5911
721.2466,94.7619
722.2109,95.0145
723.1751,95.2654
724.1393,95.4477
725.1036,95.5291
726.0678,95.5126
727.0320,95.4267
727.9963,95.3094
728.9605,95.1923
729.9247,95.0893
730.8890,94.9956
731.8532,94.8932
732.8174,94.7605
733.7817,94.5783
734.7459,94.3333
735.7101,94.0163
736.6744,93.6209
737.6386,93.1443
738.6028,92.5922
739.5671,91.9828
740.5313,91.3476
741.4955,90.7273
742.4598,90.1623
743.4240,89.6847
744.3882,89.3127
745.3525,89.0508
746.3167,88.8922
747.2809,88.823
748.2452,88.8239
749.2094,88.8724
750.1736,88.9441
751.1379,89.0171
752.1021,89.0769
753.0663,89.121
754.0306,89.1591
754.9948,89.207
755.9590,89.277
756.9233,89.3677
757.8875,89.4621
758.8517,89.5334
759.8160,89.5594
760.7802,89.5338
761.7444,89.471
762.7087,89.3996
763.6729,89.3509
764.6371,89.3489
765.6014,89.4069
766.5656,89.53
767.5298,89.7183
768.4941,89.9671
769.4583,90.2656
770.4225,90.595
771.3868,90.9302
772.3510,91.2437
773.3152,91.5095
774.2795,91.7064
775.2437,91.8207
776.2079,91.8496
777.1722,91.8036
778.1364,91.7055
779.1006,91.5827
780.0649,91.4574
781.0291,91.3385
781.9933,91.2223
782.9576,91.1003
783.9218,90.9686
784.8860,90.8318
785.8503,90.6991
786.8145,90.5759
787.7787,90.46
788.7430,90.3446
789.7072,90.2249
790.6714,90.1043
791.6357,89.9934
792.5999,89.9031
793.5641,89.8371
794.5284,89.7887
795.4926,89.7426
796.4568,89.6815
797.4211,89.592
798.3853,89.4696
799.3495,89.3187
800.3138,89.1507
801.2780,88.9792
802.2422,88.8137
803.2065,88.6558
804.1707,88.4975
805.1349,88.3258
806.0992,88.1298
807.0634,87.9072
808.0276,87.6674
808.9919,87.4274
809.9561,87.2049
810.9203,87.0112
811.8846,86.8483
812.8488,86.7119
813.8130,86.5964
814.7773,86.5
815.7415,86.425
816.7057,86.3752
817.6700,86.3509
818.6342,86.3468
819.5984,86.3537
820.5627,86.3631
821.5269,86.3713
822.4911,86.3806
823.4554,86.3961
824.4196,86.4215
825.3839,86.4564
826.3481,86.4958
827.3123,86.5333
828.2766,86.5628
829.2408,86.5793
830.2050,86.5779
831.1693,86.5532
832.1335,86.5
833.0977,86.4164
834.0620,86.3057
835.0262,86.1762
835.9904,86.0384
836.9547,85.8998
837.9189,85.7617
838.8831,85.6187
839.8474,85.462
840.8116,85.284
841.7758,85.0826
842.7401,84.8621
843.7043,84.6316
844.6685,84.4009
845.6328,84.1777
846.5970,83.9659
847.5612,83.7665
848.5255,83.5802
849.4897,83.4082
850.4539,83.2534
851.4182,83.118
852.3824,83.0019
853.3466,82.9018
854.3109,82.8118
855.2751,82.7267
856.2393,82.6445
857.2036,82.5675
858.1678,82.5016
859.1320,82.4522
860.0963,82.4219
861.0605,82.4089
862.0247,82.4095
862.9890,82.4213
863.9532,82.4454
864.9174,82.4862
865.8817,82.5481
866.8459,82.631
867.8101,82.7289
868.7744,82.8313
869.7386,82.9273
870.7028,83.0087
871.6671,83.0706
872.6313,83.1088
873.5955,83.1172
874.5598,83.0881
875.5240,83.0166
876.4882,82.905
877.4525,82.7662
878.4167,82.6199
879.3809,82.4858
880.3452,82.3762
881.3094,82.293
882.2736,82.231
883.2379,82.1846
884.2021,82.1531
885.1663,82.1416
886.1306,82.1568
887.0948,82.2035
888.0590,82.2824
889.0233,82.3932
889.9875,82.5376
890.9517,82.7215
891.9160,82.9522
892.8802,83.2341
893.8444,83.5635
894.8087,83.9282
895.7729,84.3101
896.7371,84.6905
897.7014,85.0549
898.6656,85.3957
899.6298,85.7116
900.5941,86.006
901.5583,86.283
902.5225,86.5453
903.4868,86.7927
904.4510,87.0214
905.4152,87.2252
906.3795,87.3979
907.3437,87.5347
908.3079,87.6344
909.2722,87.7004
910.2364,87.7409
911.2006,87.7683
912.1649,87.7974
913.1291,87.8432
914.0933,87.9182
915.0576,88.0304
916.0218,88.1823
916.9860,88.3708
917.9503,88.5891
918.9145,88.8294
919.8787,89.0851
920.8430,89.3517
921.8072,89.6264
922.7714,89.906
923.7357,90.1857
924.6999,90.459
925.6641,90.7198
926.6284,90.9661
927.5926,91.2018
928.5568,91.4376
929.5211,91.6889
930.4853,91.9725
931.4495,92.3043
932.4138,92.6987
933.3780,93.1678
934.3422,93.719
935.3065,94.3508
936.2707,95.0479
937.2349,95.7799
938.1992,96.5064
939.1634,97.1869
940.1276,97.7932
941.0919,98.3159
942.0561,98.7627
943.0203,99.1484
943.9846,99.4845
944.9488,99.7728
945.9130,100.008
946.8773,100.183
947.8415,100.3
948.8057,100.368
949.7700,100.4
950.7342,100.408
951.6984,100.396
952.6627,100.366
953.6269,100.313
954.5911,100.236
955.5554,100.134
956.5196,100.029
957.4838,99.9755
958.4481,99.8903
959.4123,99.7707
960.3765,99.6169
961.3408,99.4337
962.3050,99.23
963.2692,99.0162
964.2335,98.8014
965.1977,98.5928
966.1619,98.3953
967.1262,98.2129
968.0904,98.0491
969.0546,97.9065
970.0189,97.7861
970.9831,97.6857
971.9473,97.6006
972.9116,97.5244
973.8758,97.4518
974.8400,97.3792
975.8043,97.3042
976.7685,97.2234
977.7327,97.1308
978.6970,97.0184
979.6612,96.8778
980.6254,96.7038
981.5897,96.495
982.5539,96.2526
983.5181,95.9786
984.4824,95.675
985.4466,95.3452
986.4108,94.9971
987.3751,94.6454
988.3393,94.3093
989.3035,94.0077
990.2678,93.7527
991.2320,93.5453
992.1962,93.3762
993.1605,93.2313
994.1247,93.0978
995.0889,92.9693
996.0532,92.8455
997.0174,92.728
997.9816,92.6148
998.9459,92.4974
999.9101,92.3621
1000.8743,92.194
1001.8386,91.9814
1002.8028,91.7173
1003.7670,91.3978
1004.7313,91.0192
1005.6955,90.5769
1006.6597,90.0661
1007.6240,89.4833
1008.5882,88.8272
1009.5524,88.0979
1010.5167,87.2967
1011.4809,86.4264
1012.4451,85.4922
1013.4094,84.5015
1014.3736,83.4611
1015.3378,82.3747
1016.3021,81.2432
1017.2663,80.068
1018.2305,78.8553
1019.1948,77.6153
1020.1590,76.3555
1021.1232,75.0723
1022.0875,73.7516
1023.0517,72.3796
1024.0160,70.962
1024.9802,69.5366
1025.9445,68.1681
1026.9087,66.9252
1027.8729,65.8525
1028.8372,64.953
1029.8014,64.1934
1030.7656,63.5265
1031.7299,62.9175
1032.6941,62.3586
1033.6583,61.8667
1034.6226,61.4698
1035.5868,61.191
1036.5510,61.038
1037.5153,61.0012
1038.4795,61.0565
1039.4437,61.1725
1040.4080,61.3174
1041.3722,61.4668
1042.3364,61.6084
1043.3007,61.7423
1044.2649,61.8769
1045.2291,62.0233
1046.1934,62.1912
1047.1576,62.3906
1048.1218,62.6344
1049.0861,62.94
1050.0503,63.3249
1051.0145,63.7984
1051.9788,64.3549
1052.9430,64.9761
1053.9072,65.6414
1054.8715,66.3417
1055.8357,67.086
1056.7999,67.8925
1057.7642,68.7672
1058.7284,69.6804
1059.6926,70.5605
1060.6569,71.3123
1061.6211,71.8576
1062.5853,72.1757
1063.5496,72.3207
1064.5138,72.4029
1065.4780,72.5388
1066.4423,72.7982
1067.4065,73.1738
1068.3707,73.5906
1069.3350,73.9469
1070.2992,74.1618
1071.2634,74.2044
1072.2277,74.0928
1073.1919,73.872
1074.1561,73.5869
1075.1204,73.2673
1076.0846,72.9287
1077.0488,72.5807
1078.0131,72.2346
1078.9773,71.9042
1079.9415,71.6012
1080.9058,71.3321
1081.8700,71.0971
1082.8342,70.8936
1083.7985,70.7198
1084.7627,70.5773
1085.7269,70.4724
1086.6912,70.4151
1087.6554,70.4165
1088.6196,70.4837
1089.5839,70.6132
1090.5481,70.7868
1091.5123,70.9744
1092.4766,71.1438
1093.4408,71.273
1094.4050,71.3587
1095.3693,71.4167
1096.3335,71.4718
1097.2977,71.5471
1098.2620,71.6551
1099.2262,71.7978
1100.1904,71.9713
1101.1547,72.1717
1102.1189,72.3984
1103.0831,72.6531
1104.0474,72.9385
1105.0116,73.2571
1105.9758,73.6129
1106.9401,74.0128
1107.9043,74.4656
1108.8685,74.9808
1109.8328,75.5646
1110.7970,76.2185
1111.7612,76.9394
1112.7255,77.7206
1113.6897,78.5544
1114.6539,79.4335
1115.6182,80.3524
1116.5824,81.3073
1117.5466,82.2971
1118.5109,83.3226
1119.4751,84.3861
1120.4393,85.4904
1121.4036,86.6366
1122.3678,87.8222
1123.3320,89.0385
1124.2963,90.2697
1125.2605,91.4937
1126.2247,92.686
1127.1890,93.8235
1128.1532,94.8889
1129.1174,95.8706
1130.0817,96.761
1131.0459,97.5529
1132.0101,98.2376
1132.9744,98.8058
1133.9386,99.2508
1134.9028,99.5702
1135.8671,99.7673
1136.8313,99.8479
1137.7955,99.8178
1138.7598,99.6594
1139.7240,99.3245
1140.6882,98.8867
1141.6525,98.3531
1142.6167,97.7386
1143.5809,97.0659
1144.5452,96.3642
1145.5094,95.6635
1146.4736,94.9904
1147.4379,94.3639
1148.4021,93.7953
1149.3663,93.291
1150.3306,92.8556
1151.2948,92.4939
1152.2590,92.2086
1153.2233,91.996
1154.1875,91.8422
1155.1517,91.7233
1156.1160,91.6099
1157.0802,91.4741
1158.0444,91.2958
1159.0087,91.0639
1159.9729,90.7751
1160.9371,90.4295
1161.9014,90.0292
1162.8656,89.5783
1163.8298,89.0846
1164.7941,88.5609
1165.7583,88.0228
1166.7225,87.4851
1167.6868,86.9583
1168.6510,86.4464
1169.6152,85.9487
1170.5795,85.4621
1171.5437,84.984
1172.5079,84.5124
1173.4722,84.046
1174.4364,83.5831
1175.4006,83.1221
1176.3649,82.6617
1177.3291,82.2021
1178.2933,81.7436
1179.2576,81.2859
1180.2218,80.8274
1181.1860,80.3659
1182.1503,79.9
1183.1145,79.4307
1184.0787,78.9615
1185.0430,78.4966
1186.0072,78.0392
1186.9714,77.5906
1187.9357,77.1497
1188.8999,76.7134
1189.8641,76.2775
1190.8284,75.838
1191.7926,75.3923
1192.7568,74.9412
1193.7211,74.4899
1194.6853,74.0469
1195.6495,73.6219
1196.6138,73.2223
1197.5780,72.8503
1198.5422,72.5035
1199.5065,72.211
1200.4707,71.897
1201.4349,71.5984
1202.3992,71.3181
1203.3634,71.061
1204.3276,70.8323
1205.2919,70.6357
1206.2561,70.4725
1207.2203,70.3421
1208.1846,70.2426
1209.1488,70.1722
1210.1130,70.1301
1211.0773,70.1171
1212.0415,70.1339
1213.0057,70.1807
1213.9700,70.2568
1214.9342,70.3605
1215.8984,70.4898
1216.8627,70.643
1217.8269,70.8175
1218.7911,71.0091
1219.7554,71.2121
1220.7196,71.4201
1221.6838,71.6283
1222.6481,71.8337
1223.6123,72.0348
1224.5765,72.23
1225.5408,72.4159
1226.5050,72.5871
1227.4692,72.7366
1228.4335,72.8573
1229.3977,72.9438
1230.3619,72.9955
1231.3262,73.0198
1232.2904,73.033
1233.2546,73.0571
1234.2189,73.1125
1235.1831,73.2088
1236.1473,73.341
1237.1116,73.4949
1238.0758,73.6578
1239.0400,73.8301
1240.0043,74.0269
1240.9685,74.267
1241.9327,74.5569
1242.8970,74.8789
1243.8612,75.1937
1244.8254,75.4568
1245.7897,75.6384
1246.7539,75.735
1247.7181,75.7662
1248.6824,75.7604
1249.6466,75.7384
1250.6108,75.7061
1251.5751,75.6551
1252.5393,75.5719
1253.5035,75.4458
1254.4678,75.2744
1255.4320,75.064
1256.3962,74.8277
1257.3605,74.5831
1258.3247,74.3502
1259.2889,74.1481
1260.2532,73.992
1261.2174,73.8903
1262.1816,73.8441
1263.1459,73.8488
1264.1101,73.8969
1265.0743,73.9793
1266.0386,74.0864
1267.0028,74.2082
1267.9670,74.336
1268.9313,74.4633
1269.8955,74.5878
1270.8597,74.7113
1271.8240,74.8386
1272.7882,74.9761
1273.7524,75.1297
1274.7167,75.3038
1275.6809,75.5006
1276.6451,75.7204
1277.6094,75.961
1278.5736,76.2181
1279.5378,76.4858
1280.5021,76.7567
1281.4663,77.0236
1282.4305,77.2813
1283.3948,77.5277
1284.3590,77.7648
1285.3232,77.998
1286.2875,78.2344
1287.2517,78.4799
1288.2159,78.7371
1289.1802,79.0051
1290.1444,79.2802
1291.1086,79.5594
1292.0729,79.8413
1293.0371,80.1268
1294.0013,80.4176
1294.9656,80.7138
1295.9298,81.013
1296.8940,81.3106
1297.8583,81.6012
1298.8225,81.88
1299.7867,82.1427
1300.7510,82.3857
1301.7152,82.6054
1302.6794,82.8008
1303.6437,82.974
1304.6079,83.1296
1305.5721,83.2726
1306.5364,83.4054
1307.5006,83.5266
1308.4648,83.6327
1309.4291,83.7219
1310.3933,83.7968
1311.3575,83.864
1312.3218,83.9304
1313.2860,83.9994
1314.2502,84.0694
1315.2145,84.1372
1316.1787,84.2018
1317.1429,84.2673
1318.1072,84.3401
1319.0714,84.4233
1320.0356,84.5128
1320.9999,84.5983
1321.9641,84.669
1322.9283,84.7195
1323.8926,84.7514
1324.8568,84.7711
1325.8210,84.7869
1326.7853,84.8056
1327.7495,84.8322
1328.7137,84.8691
1329.6780,84.9178
1330.6422,84.9776
1331.6064,85.0439
1332.5707,85.1078
1333.5349,85.1574
1334.4991,85.183
1335.4634,85.1818
1336.4276,85.1642
1337.3918,85.1553
1338.3561,85.1886
1339.3203,85.2835
1340.2845,85.425
1341.2488,85.57
1342.2130,85.6776
1343.1772,85.7276
1344.1415,85.7198
1345.1057,85.6642
1346.0699,85.5752
1347.0342,85.468
1347.9984,85.3558
1348.9626,85.2455
1349.9269,85.1373
1350.8911,85.0271
1351.8553,84.9118
1352.8196,84.7937
1353.7838,84.6803
1354.7480,84.5795
1355.7123,84.494
1356.6765,84.4181
1357.6407,84.3427
1358.6050,84.2627
1359.5692,84.1843
1360.5334,84.1279
1361.4977,84.1225
1362.4619,84.1832
1363.4261,84.2912
1364.3904,84.4079
1365.3546,84.5075
1366.3188,84.5892
1367.2831,84.6627
1368.2473,84.7325
1369.2115,84.7919
1370.1758,84.8285
1371.1400,84.8356
1372.1042,84.8211
1373.0685,84.8089
1374.0327,84.8273
1374.9969,84.8885
1375.9612,84.9792
1376.9254,85.0794
1377.8896,85.1845
1378.8539,85.3075
1379.8181,85.4632
1380.7823,85.6535
1381.7466,85.8648
1382.7108,86.0821
1383.6750,86.3049
1384.6393,86.5506
1385.6035,86.8415
1386.5677,87.1736
1387.5320,87.4885
1388.4962,87.6948
1389.4604,87.7348
1390.4247,87.6191
1391.3889,87.4043
1392.3531,87.1631
1393.3174,86.9728
1394.2816,86.901
1395.2458,86.9717
1396.2101,87.1363
1397.1743,87.2954
1398.1385,87.3626
1399.1028,87.3071
1400.0670,87.1467
1401.0313,86.9198
1401.9955,86.6622
1402.9597,86.4012
1403.9240,86.1589
1404.8882,85.9538
1405.8524,85.7943
1406.8167,85.674
1407.7809,85.5792
1408.7451,85.5016
1409.7094,85.4409
1410.6736,85.3962
1411.6378,85.3584
1412.6021,85.3123
1413.5663,85.2468
1414.5305,85.1613
1415.4948,85.0602
1416.4590,84.9479
1417.4232,84.8326
1418.3875,84.7243
1419.3517,84.6103
1420.3159,84.4524
1421.2802,84.2304
1422.2444,83.9625
1423.2086,83.6829
1424.1729,83.4179
1425.1371,83.1782
1426.1013,82.9608
1427.0656,82.7558
1428.0298,82.5537
1428.9940,82.3534
1429.9583,82.1626
1430.9225,81.9929
1431.8867,81.8506
1432.8510,81.733
1433.8152,81.6243
1434.7794,81.498
1435.7437,81.3324
1436.7079,81.1244
1437.6721,80.8768
1438.6364,80.5888
1439.6006,80.2704
1440.5648,79.9445
1441.5291,79.6304
1442.4933,79.3345
1443.4575,79.0522
1444.4218,78.7739
1445.3860,78.4911
1446.3502,78.2005
1447.3145,77.9052
1448.2787,77.6115
1449.2429,77.323
1450.2072,77.0426
1451.1714,76.7812
1452.1356,76.5563
1453.0999,76.3769
1454.0641,76.2276
1455.0283,76.0781
1455.9926,75.9457
1456.9568,75.9364
1457.9210,76.0579
1458.8853,76.1311
1459.8495,76.075
1460.8137,75.9707
1461.7780,75.933
1462.7422,76.0605
1463.7064,76.4328
1464.6707,77.068
1465.6349,77.8585
1466.5991,78.6307
1467.5634,79.2969
1468.5276,79.8902
1469.4918,80.4936
1470.4561,81.1855
1471.4203,82.0272
1472.3845,83.0301
1473.3488,84.0712
1474.3130,84.9172
1475.2772,85.4307
1476.2415,85.6468
1477.2057,85.6681
1478.1699,85.5873
1479.1342,85.4802
1480.0984,85.4151
1481.0626,85.4465
1482.0269,85.5952
1482.9911,85.8382
1483.9553,86.1232
1484.9196,86.3946
1485.8838,86.6092
1486.8480,86.7465
1487.8123,86.8277
1488.7765,86.9182
1489.7407,87.0508
1490.7050,87.1635
1491.6692,87.1843
1492.6334,87.1075
1493.5977,86.9575
1494.5619,86.7372
1495.5261,86.4211
1496.4904,85.9902
1497.4546,85.4722
1498.4188,84.9237
1499.3831,84.3849
1500.3473,83.8879
1501.3115,83.4755
1502.2758,83.1825
1503.2400,83.0024
1504.2042,82.8615
1505.1685,82.6292
1506.1327,82.2539
1507.0969,81.9482
1508.0612,81.8833
1509.0254,81.8666
1509.9896,81.7479
1510.9539,81.5571
1511.9181,81.3637
1512.8823,81.2276
1513.8466,81.2139
1514.8108,81.3976
1515.7750,81.8316
1516.7393,82.5071
1517.7035,83.3749
1518.6677,84.4202
1519.6320,85.6931
1520.5962,87.2198
1521.5604,88.871
1522.5247,90.3981
1523.4889,91.6485
1524.4531,92.6732
1525.4174,93.6117
1526.3816,94.5324
1527.3458,95.3883
1528.3101,96.0995
1529.2743,96.6436
1530.2385,97.0709
1531.2028,97.4671
1532.1670,97.9054
1533.1312,98.3943
1534.0955,98.8616
1535.0597,99.2321
1536.0239,99.504
1536.9882,99.7088
1537.9524,99.8248
1538.9166,99.7687
1539.8809,99.5617
1540.8451,99.5
1541.8093,99.7684
1542.7736,100.147
1543.7378,100.444
1544.7020,100.637
1545.6663,100.741
1546.6305,100.768
1547.5947,100.732
1548.5590,100.66
1549.5232,100.571
1550.4874,100.492
1551.4517,100.389
1552.4159,100.26
1553.3801,100.128
1554.3444,100.031
1555.3086,99.9851
1556.2728,99.9512
1557.2371,99.8826
1558.2013,99.8631
1559.1655,99.9485
1560.1298,99.8623
1561.0940,99.4599
1562.0582,98.9039
1563.0225,98.3748
1563.9867,97.9547
1564.9509,97.6446
1565.9152,97.3982
1566.8794,97.1479
1567.8436,96.8374
1568.8079,96.4552
1569.7721,96.038
1570.7363,95.6339
1571.7006,95.2721
1572.6648,94.95
1573.6290,94.6199
1574.5933,94.201
1575.5575,93.652
1576.5217,93.0421
1577.4860,92.4742
1578.4502,91.9655
1579.4144,91.481
1580.3787,90.9948
1581.3429,90.49
1582.3071,89.9542
1583.2714,89.3871
1584.2356,88.8005
1585.1998,88.2058
1586.1641,87.6061
1587.1283,87.0005
1588.0925,86.3927
1589.0568,85.7932
1590.0210,85.2125
1590.9852,84.6566
1591.9495,84.129
1592.9137,83.6384
1593.8779,83.2011
1594.8422,82.8338
1595.8064,82.5414
1596.7706,82.3129
1597.7349,82.1287
1598.6991,81.9723
1599.6633,81.837
1600.6276,81.7249
1601.5918,81.6427
1602.5560,81.5939
1603.5203,81.5747
1604.4845,81.5762
1605.4487,81.5928
1606.4130,81.6304
1607.3772,81.706
1608.3414,81.8358
1609.3057,82.0165
1610.2699,82.2204
1611.2341,82.4204
1612.1984,82.6155
1613.1626,82.8337
1614.1268,83.1225
1615.0911,83.5402
1616.0553,84.1103
1617.0195,84.7349
1617.9838,85.24
1618.9480,85.5627
1619.9122,85.7893
1620.8765,86.0446
1621.8407,86.4084
1622.8049,86.8867
1623.7692,87.4154
1624.7334,87.9102
1625.6976,88.3397
1626.6619,88.7363
1627.6261,89.1382
1628.5903,89.5411
1629.5546,89.9102
1630.5188,90.2285
1631.4830,90.5143
1632.4473,90.7928
1633.4115,91.0663
1634.3757,91.3322
1635.3400,91.6291
1636.3042,91.9761
1637.2684,92.2743
1638.2327,92.4385
1639.1969,92.5042
1640.1611,92.5497
1641.1254,92.6245
1642.0896,92.7385
1643.0538,92.864
1644.0181,92.9391
1644.9823,92.9021
1645.9465,92.7719
1646.9108,92.6644
1647.8750,92.6647
1648.8392,92.7801
1649.8035,93.0006
1650.7677,93.2825
1651.7319,93.5176
1652.6962,93.6187
1653.6604,93.5976
1654.6246,93.4036
1655.5889,93.0078
1656.5531,92.5485
1657.5173,92.1717
1658.4816,91.9269
1659.4458,91.7775
1660.4100,91.6488
1661.3743,91.4846
1662.3385,91.2817
1663.3027,91.0665
1664.2670,90.8596
1665.2312,90.6684
1666.1954,90.4818
1667.1597,90.2638
1668.1239,89.9796
1669.0881,89.6497
1670.0524,89.355
1671.0166,89.1529
1671.9808,89.0323
1672.9451,88.9533
1673.9093,88.8711
1674.8735,88.733
1675.8378,88.4919
1676.8020,88.1402
1677.7662,87.73
1678.7305,87.3481
1679.6947,87.0634
1680.6589,86.8848
1681.6232,86.7505
1682.5874,86.5724
1683.5516,86.3259
1684.5159,86.0444
1685.4801,85.7091
1686.4443,85.2953
1687.4086,84.8434
1688.3728,84.4143
1689.3370,84.0483
1690.3013,83.7598
1691.2655,83.5397
1692.2297,83.3543
1693.1940,83.1474
1694.1582,82.8572
1695.1224,82.4558
1696.0867,81.9961
1697.0509,81.612
1698.0151,81.4241
1698.9794,81.4087
1699.9436,81.3963
1700.9078,81.2335
1701.8721,80.9121
1702.8363,80.5379
1703.8005,80.2338
1704.7648,80.077
1705.7290,80.0789
1706.6932,80.1902
1707.6575,80.3347
1708.6217,80.4613
1709.5859,80.5669
1710.5502,80.6767
1711.5144,80.812
1712.4786,80.9758
1713.4429,81.1622
1714.4071,81.3878
1715.3713,81.7371
1716.3356,82.3357
1717.2998,83.1512
1718.2640,83.9026
1719.2283,84.3743
1720.1925,84.6114
1721.1567,84.7753
1722.1210,84.9907
1723.0852,85.3006
1724.0494,85.6801
1725.0137,86.0717
1725.9779,86.4249
1726.9421,86.7218
1727.9064,86.9785
1728.8706,87.2288
1729.8348,87.5078
1730.7991,87.8476
1731.7633,88.2828
1732.7275,88.8362
1733.6918,89.4462
1734.6560,89.9421
1735.6202,90.2106
1736.5845,90.3145
1737.5487,90.3977
1738.5129,90.5641
1739.4772,90.8362
1740.4414,91.1676
1741.4056,91.4836
1742.3699,91.7334
1743.3341,91.918
1744.2983,92.0736
1745.2626,92.2377
1746.2268,92.4341
1747.1910,92.6837
1748.1553,93.0185
1749.1195,93.4593
1750.0837,93.9567
1751.0480,94.3905
1752.0122,94.6725
1752.9764,94.8132
1753.9407,94.8841
1754.9049,94.9532
1755.8691,95.0538
1756.8334,95.1856
1757.7976,95.3328
1758.7618,95.4848
1759.7261,95.6444
1760.6903,95.8198
1761.6545,96.0073
1762.6188,96.1861
1763.5830,96.3347
1764.5472,96.4512
1765.5115,96.5528
1766.4757,96.6558
1767.4399,96.7612
1768.4042,96.8563
1769.3684,96.9315
1770.3326,97.0046
1771.2969,97.1249
1772.2611,97.3245
1773.2253,97.5617
1774.1896,97.7573
1775.1538,97.8831
1776.1180,97.9743
1777.0823,98.0806
1778.0465,98.228
1779.0107,98.4135
1779.9750,98.618
1780.9392,98.8232
1781.9034,99.019
1782.8677,99.2003
1783.8319,99.3582
1784.7961,99.4782
1785.7604,99.5518
1786.7246,99.5892
1787.6888,99.6159
1788.6531,99.6534
1789.6173,99.7019
1790.5815,99.7477
1791.5458,99.7859
1792.5100,99.8206
1793.4742,99.8393
1794.4385,99.8265
1795.4027,99.7973
1796.3669,99.7856
1797.3312,99.812
1798.2954,99.8723
1799.2596,99.9496
1800.2239,100.028
1801.1881,100.098
1802.1523,100.149
1803.1166,100.177
1804.0808,100.186
1805.0450,100.182
1806.0093,100.171
1806.9735,100.155
1807.9377,100.137
1808.9020,100.123
1809.8662,100.124
1810.8304,100.148
1811.7947,100.189
1812.7589,100.234
1813.7231,100.272
1814.6874,100.3
1815.6516,100.32
1816.6158,100.33
1817.5801,100.329
1818.5443,100.319
1819.5085,100.303
1820.4728,100.292
1821.4370,100.29
1822.4012,100.296
1823.3655,100.303
1824.3297,100.297
1825.2939,100.272
1826.2582,100.227
1827.2224,100.174
1828.1866,100.134
1829.1509,100.127
1830.1151,100.153
1831.0793,100.195
1832.0436,100.224
1833.0078,100.22
1833.9720,100.201
1834.9363,100.187
1835.9005,100.184
1836.8647,100.189
1837.8290,100.2
1838.7932,100.22
1839.7574,100.26
1840.7217,100.324
1841.6859,100.396
1842.6501,100.448
1843.6144,100.466
1844.5786,100.453
1845.5428,100.42
1846.5071,100.377
1847.4713,100.341
1848.4355,100.331
1849.3998,100.352
1850.3640,100.392
1851.3282,100.432
1852.2925,100.458
1853.2567,100.466
1854.2209,100.462
1855.1852,100.452
1856.1494,100.439
1857.1136,100.427
1858.0779,100.418
1859.0421,100.417
1860.0063,100.421
1860.9706,100.425
1861.9348,100.418
1862.8990,100.394
1863.8633,100.355
1864.8275,100.306
1865.7917,100.253
1866.7560,100.215
1867.7202,100.217
1868.6844,100.278
1869.6487,100.374
1870.6129,100.453
1871.5771,100.49
1872.5414,100.494
1873.5056,100.489
1874.4698,100.488
1875.4341,100.493
1876.3983,100.498
1877.3625,100.502
1878.3268,100.505
1879.2910,100.507
1880.2552,100.508
1881.2195,100.505
1882.1837,100.493
1883.1479,100.474
1884.1122,100.452
1885.0764,100.435
1886.0406,100.429
1887.0049,100.433
1887.9691,100.446
1888.9333,100.462
1889.8976,100.473
1890.8618,100.471
1891.8260,100.455
1892.7903,100.432
1893.7545,100.412
1894.7188,100.406
1895.6830,100.416
1896.6472,100.438
1897.6115,100.46
1898.5757,100.475
1899.5399,100.477
1900.5042,100.47
1901.4684,100.457
1902.4326,100.442
1903.3969,100.425
1904.3611,100.403
1905.3253,100.375
1906.2896,100.341
1907.2538,100.308
1908.2180,100.285
1909.1823,100.28
1910.1465,100.293
1911.1107,100.313
1912.0750,100.332
1913.0392,100.347
1914.0034,100.363
1914.9677,100.38
1915.9319,100.397
1916.8961,100.403
1917.8604,100.391
1918.8246,100.356
1919.7888,100.303
1920.7531,100.248
1921.7173,100.21
1922.6815,100.203
1923.6458,100.224
1924.6100,100.259
1925.5742,100.292
1926.5385,100.313
1927.5027,100.323
1928.4669,100.325
1929.4312,100.324
1930.3954,100.321
1931.3596,100.316
1932.3239,100.311
1933.2881,100.309
1934.2523,100.31
1935.2166,100.314
1936.1808,100.317
1937.1450,100.317
1938.1093,100.311
1939.0735,100.3
1940.0377,100.285
1941.0020,100.268
1941.9662,100.254
1942.9304,100.249
1943.8947,100.253
1944.8589,100.264
1945.8231,100.282
1946.7874,100.305
1947.7516,100.332
1948.7158,100.359
1949.6801,100.379
1950.6443,100.389
1951.6085,100.391
1952.5728,100.389
1953.5370,100.39
1954.5012,100.398
1955.4655,100.411
1956.4297,100.427
1957.3939,100.441
1958.3582,100.452
1959.3224,100.461
1960.2866,100.466
1961.2509,100.468
1962.2151,100.464
1963.1793,100.454
1964.1436,100.44
1965.1078,100.427
1966.0720,100.422
1967.0363,100.432
1968.0005,100.457
1968.9647,100.489
1969.9290,100.517
1970.8932,100.537
1971.8574,100.547
1972.8217,100.551
1973.7859,100.552
1974.7501,100.554
1975.7144,100.557
1976.6786,100.562
1977.6428,100.565
1978.6071,100.566
1979.5713,100.565
1980.5355,100.563
1981.4998,100.562
1982.4640,100.561
1983.4282,100.561
1984.3925,100.558
1985.3567,100.551
1986.3209,100.539
1987.2852,100.523
1988.2494,100.507
1989.2136,100.494
1990.1779,100.487
1991.1421,100.49
1992.1063,100.5
1993.0706,100.514
1994.0348,100.526
1994.9990,100.532
1995.9633,100.533
1996.9275,100.531
1997.8917,100.528
1998.8560,100.527
1999.8202,100.528
2000.7844,100.531
2001.7487,100.534
2002.7129,100.534
2003.6771,100.531
2004.6414,100.524
2005.6056,100.514
2006.5698,100.504
2007.5341,100.494
2008.4983,100.488
2009.4625,100.485
2010.4268,100.484
2011.3910,100.48
2012.3552,100.472
2013.3195,100.457
2014.2837,100.436
2015.2479,100.414
2016.2122,100.398
2017.1764,100.392
2018.1406,100.397
2019.1049,100.409
2020.0691,100.421
2021.0333,100.43
2021.9976,100.434
2022.9618,100.435
2023.9260,100.436
2024.8903,100.436
2025.8545,100.438
2026.8187,100.439
2027.7830,100.437
2028.7472,100.433
2029.7114,100.427
2030.6757,100.42
2031.6399,100.413
2032.6041,100.409
2033.5684,100.408
2034.5326,100.409
2035.4968,100.41
2036.4611,100.409
2037.4253,100.405
2038.3895,100.399
2039.3538,100.392
2040.3180,100.386
2041.2822,100.384
2042.2465,100.387
2043.2107,100.391
2044.1749,100.396
2045.1392,100.399
2046.1034,100.399
2047.0676,100.396
2048.0320,100.391
2048.9961,100.385
2049.9604,100.381
2050.9246,100.378
2051.8889,100.376
2052.8530,100.374
2053.8174,100.371
2054.7815,100.366
2055.7458,100.361
2056.7100,100.357
2057.6743,100.354
2058.6384,100.352
2059.6028,100.348
2060.5669,100.342
2061.5313,100.333
2062.4954,100.323
2063.4597,100.316
2064.4238,100.315
2065.3882,100.323
2066.3523,100.336
2067.3167,100.351
2068.2808,100.363
2069.2451,100.371
2070.2092,100.374
2071.1736,100.374
2072.1377,100.374
2073.1021,100.376
2074.0662,100.379
2075.0305,100.382
2075.9946,100.385
2076.9590,100.386
2077.9231,100.384
2078.8875,100.381
2079.8516,100.378
2080.8159,100.376
2081.7800,100.377
2082.7444,100.379
2083.7085,100.383
2084.6729,100.388
2085.6370,100.391
2086.6013,100.394
2087.5654,100.396
2088.5298,100.397
2089.4939,100.397
2090.4583,100.396
2091.4224,100.394
2092.3867,100.393
2093.3508,100.392
2094.3152,100.393
2095.2793,100.397
2096.2437,100.402
2097.2078,100.408
2098.1721,100.414
2099.1362,100.417
2100.1006,100.415
2101.0647,100.412
2102.0291,100.407
2102.9932,100.402
2103.9575,100.398
2104.9216,100.397
2105.8860,100.397
2106.8501,100.398
2107.8145,100.397
2108.7786,100.395
2109.7429,100.39
2110.7070,100.384
2111.6714,100.377
2112.6355,100.372
2113.5999,100.368
2114.5640,100.366
2115.5283,100.366
2116.4924,100.369
2117.4568,100.374
2118.4209,100.378
2119.3853,100.381
2120.3494,100.382
2121.3137,100.38
2122.2778,100.375
2123.2422,100.37
2124.2063,100.365
2125.1707,100.361
2126.1348,100.358
2127.0991,100.356
2128.0632,100.357
2129.0276,100.36
2129.9917,100.366
2130.9561,100.373
2131.9202,100.377
2132.8845,100.377
2133.8486,100.374
2134.8130,100.368
2135.7771,100.364
2136.7415,100.363
2137.7056,100.367
2138.6699,100.374
2139.6340,100.383
2140.5984,100.39
2141.5625,100.395
2142.5269,100.4
2143.4910,100.405
2144.4553,100.411
2145.4194,100.42
2146.3838,100.43
2147.3479,100.438
2148.3123,100.443
2149.2764,100.443
2150.2407,100.44
2151.2048,100.434
2152.1692,100.427
2153.1333,100.421
2154.0977,100.418
2155.0618,100.418
2156.0261,100.421
2156.9902,100.426
2157.9546,100.433
2158.9187,100.441
2159.8831,100.45
2160.8472,100.458
2161.8115,100.465
2162.7756,100.468
2163.7400,100.468
2164.7041,100.465
2165.6685,100.459
2166.6326,100.453
2167.5969,100.447
2168.5610,100.444
2169.5254,100.442
2170.4895,100.443
2171.4539,100.444
2172.4180,100.447
2173.3823,100.448
2174.3464,100.449
2175.3108,100.448
2176.2749,100.446
2177.2393,100.443
2178.2034,100.44
2179.1677,100.436
2180.1318,100.432
2181.0962,100.428
2182.0603,100.423
2183.0247,100.419
2183.9888,100.414
2184.9531,100.41
2185.9172,100.408
2186.8816,100.408
2187.8457,100.409
2188.8101,100.411
2189.7742,100.413
2190.7385,100.415
2191.7026,100.416
2192.6670,100.418
2193.6311,100.421
2194.5955,100.425
2195.5596,100.43
2196.5239,100.433
2197.4880,100.434
2198.4524,100.43
2199.4165,100.422
2200.3809,100.413
2201.3450,100.405
2202.3093,100.402
2203.2734,100.402
2204.2378,100.404
2205.2019,100.406
2206.1663,100.406
2207.1304,100.405
2208.0947,100.402
2209.0588,100.401
2210.0232,100.4
2210.9873,100.399
2211.9517,100.396
2212.9158,100.391
2213.8801,100.385
2214.8442,100.38
2215.8086,100.378
2216.7727,100.379
2217.7371,100.379
2218.7012,100.378
2219.6655,100.373
2220.6296,100.365
2221.5940,100.358
2222.5581,100.354
2223.5225,100.355
2224.4866,100.358
2225.4509,100.362
2226.4150,100.362
2227.3794,100.356
2228.3435,100.344
2229.3079,100.328
2230.2720,100.312
2231.2363,100.298
2232.2004,100.286
2233.1648,100.276
2234.1289,100.268
2235.0933,100.261
2236.0574,100.256
2237.0217,100.252
2237.9858,100.249
2238.9502,100.246
2239.9143,100.24
2240.8787,100.233
2241.8428,100.223
2242.8071,100.211
2243.7712,100.197
2244.7356,100.183
2245.6997,100.168
2246.6641,100.154
2247.6282,100.142
2248.5925,100.13
2249.5566,100.118
2250.5210,100.107
2251.4851,100.094
2252.4495,100.08
2253.4136,100.065
2254.3779,100.048
2255.3420,100.03
2256.3064,100.011
2257.2705,99.9911
2258.2349,99.9718
2259.1990,99.9538
2260.1633,99.9377
2261.1274,99.9234
2262.0918,99.9108
2263.0559,99.8998
2264.0203,99.8906
2264.9844,99.8833
2265.9487,99.8779
2266.9128,99.8734
2267.8772,99.8681
2268.8413,99.8605
2269.8057,99.8502
2270.7698,99.8386
2271.7341,99.828
2272.6982,99.8208
2273.6626,99.8178
2274.6267,99.8178
2275.5911,99.8191
2276.5552,99.8201
2277.5195,99.8214
2278.4836,99.8244
2279.4480,99.8305
2280.4121,99.839
2281.3765,99.8464
2282.3406,99.8478
2283.3049,99.8385
2284.2690,99.8168
2285.2334,99.7845
2286.1975,99.746
2287.1619,99.7061
2288.1260,99.6675
2289.0903,99.6298
2290.0544,99.5907
2291.0188,99.5492
2291.9829,99.5066
2292.9473,99.4674
2293.9114,99.4363
2294.8757,99.4159
2295.8398,99.4057
2296.8042,99.4031
2297.7683,99.4064
2298.7327,99.4169
2299.6968,99.4386
2300.6611,99.4747
2301.6252,99.5239
2302.5896,99.5789
2303.5537,99.6283
2304.5181,99.6611
2305.4822,99.6728
2306.4465,99.6687
2307.4106,99.6635
2308.3750,99.6753
2309.3391,99.7173
2310.3035,99.7903
2311.2676,99.8825
2312.2319,99.9757
2313.1960,100.055
2314.1604,100.117
2315.1245,100.169
2316.0889,100.226
2317.0530,100.296
2318.0173,100.376
2318.9814,100.452
2319.9458,100.494
2320.9099,100.473
2321.8743,100.368
2322.8384,100.18
2323.8027,99.9374
2324.7668,99.6894
2325.7312,99.4924
2326.6953,99.3883
2327.6597,99.3878
2328.6238,99.4622
2329.5881,99.5502
2330.5522,99.5827
2331.5166,99.5167
2332.4807,99.3583
2333.4451,99.1575
2334.4092,98.9779
2335.3735,98.8624
2336.3376,98.8129
2337.3020,98.7923
2338.2661,98.7473
2339.2305,98.6423
2340.1946,98.4911
2341.1589,98.3722
2342.1230,98.4069
2343.0874,98.6679
2344.0515,99.0527
2345.0159,99.3124
2345.9800,99.287
2346.9443,99.0408
2347.9084,98.7637
2348.8728,98.6183
2349.8369,98.6613
2350.8013,98.8447
2351.7654,99.0261
2352.7297,99.0608
2353.6938,98.9068
2354.6582,98.6389
2355.6223,98.3593
2356.5867,98.1134
2357.5508,97.9077
2358.5151,97.7552
2359.4792,97.6704
2360.4436,97.6427
2361.4077,97.652
2362.3721,97.71
2363.3362,97.8636
2364.3005,98.1477
2365.2646,98.5426
2366.2290,98.9823
2367.1931,99.3996
2368.1575,99.7611
2369.1216,100.066
2370.0859,100.326
2371.0500,100.545
2372.0144,100.718
2372.9785,100.833
2373.9429,100.88
2374.9070,100.858
2375.8713,100.771
2376.8354,100.633
2377.7998,100.46
2378.7639,100.271
2379.7283,100.084
2380.6924,99.9177
2381.6567,99.7846
2382.6208,99.6931
2383.5852,99.6442
2384.5493,99.6311
2385.5137,99.6417
2386.4778,99.6623
2387.4421,99.6813
2388.4063,99.6925
2389.3706,99.6958
2390.3347,99.6953
2391.2991,99.6962
2392.2632,99.7009
2393.2275,99.7087
2394.1917,99.7162
2395.1560,99.7205
2396.1201,99.7215
2397.0845,99.7221
2398.0486,99.7253
2399.0129,99.7321
2399.9771,99.7397
2400.9414,99.7431
2401.9055,99.7385
2402.8699,99.7269
2403.8340,99.7141
2404.7983,99.7075
2405.7625,99.7115
2406.7268,99.7246
2407.6909,99.7404
2408.6553,99.7518
2409.6194,99.7555
2410.5837,99.7543
2411.5479,99.7539
2412.5122,99.759
2413.4763,99.7695
2414.4407,99.7808
2415.4048,99.788
2416.3691,99.7893
2417.3333,99.7876
2418.2976,99.7881
2419.2617,99.7941
2420.2261,99.8041
2421.1902,99.8136
2422.1545,99.818
2423.1187,99.8169
2424.0830,99.8142
2425.0471,99.8153
2426.0115,99.8229
2426.9756,99.8348
2427.9399,99.8457
2428.9041,99.8507
2429.8684,99.8489
2430.8325,99.8441
2431.7969,99.8416
2432.7610,99.8451
2433.7253,99.8536
2434.6895,99.8628
2435.6538,99.8678
2436.6179,99.867
2437.5823,99.8631
2438.5464,99.8614
2439.5107,99.867
2440.4749,99.8807
2441.4392,99.8987
2442.4033,99.9146
2443.3677,99.9229
2444.3318,99.9224
2445.2961,99.9159
2446.2603,99.9087
2447.2246,99.9043
2448.1887,99.903
2449.1531,99.9023
2450.1172,99.8998
2451.0815,99.8959
2452.0457,99.8935
2453.0100,99.8962
2453.9741,99.905
2454.9385,99.9169
2455.9026,99.9266
2456.8669,99.9296
2457.8311,99.925
2458.7954,99.916
2459.7595,99.9077
2460.7239,99.9039
2461.6880,99.9051
2462.6523,99.9092
2463.6165,99.9131
2464.5808,99.915
2465.5449,99.9151
2466.5093,99.9141
2467.4734,99.9126
2468.4377,99.9099
2469.4019,99.9051
2470.3662,99.8981
2471.3303,99.8911
2472.2947,99.8873
2473.2588,99.8891
2474.2231,99.8963
2475.1873,99.9056
2476.1516,99.9122
2477.1157,99.9127
2478.0801,99.9071
2479.0442,99.899
2480.0085,99.8935
2480.9727,99.8939
2481.9370,99.8999
2482.9011,99.908
2483.8655,99.9133
2484.8296,99.913
2485.7939,99.9077
2486.7581,99.901
2487.7224,99.8971
2488.6865,99.8983
2489.6509,99.9032
2490.6150,99.9081
2491.5793,99.909
2492.5435,99.9043
2493.5078,99.8963
2494.4719,99.8894
2495.4363,99.888
2496.4004,99.8934
2497.3647,99.9029
2498.3289,99.912
2499.2932,99.9166
2500.2573,99.9158
2501.2217,99.9118
2502.1858,99.9087
2503.1501,99.9092
2504.1143,99.9135
2505.0786,99.919
2506.0427,99.9222
2507.0071,99.921
2507.9712,99.9153
2508.9355,99.9066
2509.8997,99.8971
2510.8640,99.888
2511.8281,99.8799
2512.7925,99.8736
2513.7566,99.8703
2514.7209,99.8723
2515.6851,99.8803
2516.6494,99.8932
2517.6135,99.9064
2518.5779,99.9147
2519.5420,99.9144
2520.5063,99.9063
2521.4705,99.8953
2522.4348,99.8875
2523.3989,99.8867
2524.3633,99.8924
2525.3274,99.8997
2526.2917,99.9035
2527.2559,99.9012
2528.2202,99.8942
2529.1843,99.8866
2530.1487,99.882
2531.1128,99.8812
2532.0771,99.882
2533.0413,99.8818
2534.0056,99.8792
2534.9697,99.8759
2535.9341,99.8746
2536.8982,99.8772
2537.8625,99.8825
2538.8267,99.887
2539.7910,99.887
2540.7551,99.8817
2541.7195,99.8737
2542.6836,99.8683
2543.6479,99.8695
2544.6121,99.8774
2545.5764,99.8881
2546.5405,99.8958
2547.5049,99.8969
2548.4690,99.8925
2549.4333,99.8872
2550.3975,99.8864
2551.3618,99.8919
2552.3259,99.9009
2553.2903,99.9084
2554.2544,99.9108
2555.2188,99.9091
2556.1829,99.9084
2557.1472,99.9138
2558.1113,99.9267
2559.0757,99.943
2560.0398,99.9556
2561.0042,99.9593
2561.9683,99.9543
2562.9326,99.9463
2563.8967,99.9421
2564.8611,99.9455
2565.8252,99.9543
2566.7896,99.9628
2567.7537,99.9661
2568.7180,99.9642
2569.6821,99.9612
2570.6465,99.9615
2571.6106,99.9658
2572.5750,99.9698
2573.5391,99.9676
2574.5034,99.9569
2575.4675,99.9417
2576.4319,99.9308
2577.3960,99.9316
2578.3604,99.9449
2579.3245,99.9637
2580.2888,99.9777
2581.2529,99.9803
2582.2173,99.9727
2583.1814,99.9631
2584.1458,99.9602
2585.1099,99.9669
2586.0742,99.9783
2587.0383,99.985
2588.0027,99.9799
2588.9668,99.9634
2589.9312,99.9432
2590.8953,99.9294
2591.8596,99.9276
2592.8237,99.9357
2593.7881,99.9462
2594.7522,99.9518
2595.7166,99.9504
2596.6807,99.9465
2597.6450,99.9472
2598.6091,99.9563
2599.5735,99.9712
2600.5376,99.9847
2601.5020,99.9897
2602.4661,99.9847
2603.4304,99.9752
2604.3945,99.9698
2605.3589,99.9744
2606.3230,99.9878
2607.2874,100.002
2608.2515,100.01
2609.2158,100.006
2610.1799,99.9962
2611.1443,99.9893
2612.1084,99.9927
2613.0728,100.006
2614.0369,100.022
2615.0012,100.029
2615.9653,100.023
2616.9297,100.007
2617.8938,99.9913
2618.8582,99.9876
2619.8223,99.9991
2620.7866,100.02
2621.7507,100.038
2622.7151,100.045
2623.6792,100.04
2624.6436,100.032
2625.6077,100.029
2626.5720,100.036
2627.5361,100.05
2628.5005,100.063
2629.4646,100.066
2630.4290,100.06
2631.3931,100.05
2632.3574,100.047
2633.3215,100.054
2634.2859,100.069
2635.2500,100.083
2636.2144,100.089
2637.1785,100.085
2638.1428,100.078
2639.1069,100.077
2640.0713,100.089
2641.0354,100.11
2641.9998,100.133
2642.9639,100.145
2643.9282,100.143
2644.8923,100.132
2645.8567,100.12
2646.8208,100.118
2647.7852,100.126
2648.7493,100.138
2649.7136,100.144
2650.6777,100.139
2651.6421,100.126
2652.6062,100.115
2653.5706,100.113
2654.5347,100.125
2655.4990,100.146
2656.4631,100.165
2657.4275,100.176
2658.3916,100.179
2659.3560,100.178
2660.3201,100.181
2661.2844,100.193
2662.2485,100.21
2663.2129,100.227
2664.1770,100.238
2665.1414,100.241
2666.1055,100.242
2667.0698,100.244
2668.0339,100.252
2668.9983,100.264
2669.9624,100.274
2670.9268,100.278
2671.8909,100.277
2672.8552,100.277
2673.8193,100.285
2674.7837,100.302
2675.7478,100.325
2676.7122,100.342
2677.6763,100.347
2678.6406,100.335
2679.6047,100.312
2680.5691,100.289
2681.5332,100.275
2682.4976,100.274
2683.4617,100.283
2684.4260,100.293
2685.3901,100.298
2686.3545,100.296
2687.3186,100.29
2688.2830,100.287
2689.2471,100.292
2690.2114,100.305
2691.1755,100.319
2692.1399,100.33
2693.1040,100.335
2694.0684,100.336
2695.0325,100.337
2695.9968,100.344
2696.9609,100.355
2697.9253,100.368
2698.8894,100.378
2699.8538,100.382
2700.8179,100.383
2701.7822,100.382
2702.7463,100.381
2703.7107,100.38
2704.6748,100.375
2705.6392,100.365
2706.6033,100.349
2707.5676,100.333
2708.5317,100.322
2709.4961,100.319
2710.4602,100.322
2711.4246,100.327
2712.3887,100.327
2713.3530,100.319
2714.3171,100.303
2715.2815,100.286
2716.2456,100.272
2717.2100,100.263
2718.1741,100.26
2719.1384,100.259
2720.1025,100.257
2721.0669,100.253
2722.0310,100.247
2722.9954,100.24
2723.9595,100.236
2724.9238,100.232
2725.8879,100.228
2726.8523,100.223
2727.8164,100.218
2728.7808,100.211
2729.7449,100.206
2730.7092,100.204
2731.6733,100.204
2732.6377,100.206
2733.6018,100.208
2734.5662,100.209
2735.5303,100.207
2736.4946,100.203
2737.4587,100.199
2738.4231,100.196
2739.3872,100.198
2740.3516,100.205
2741.3157,100.215
2742.2800,100.226
2743.2441,100.239
2744.2085,100.252
2745.1726,100.265
2746.1370,100.278
2747.1011,100.288
2748.0654,100.292
2749.0295,100.291
2749.9939,100.285
2750.9580,100.279
2751.9224,100.277
2752.8865,100.281
2753.8508,100.288
2754.8149,100.295
2755.7793,100.294
2756.7434,100.285
2757.7078,100.269
2758.6719,100.252
2759.6362,100.238
2760.6003,100.229
2761.5647,100.223
2762.5288,100.216
2763.4932,100.207
2764.4573,100.194
2765.4216,100.18
2766.3857,100.168
2767.3501,100.16
2768.3142,100.155
2769.2786,100.152
2770.2427,100.147
2771.2070,100.138
2772.1711,100.122
2773.1355,100.098
2774.0996,100.069
2775.0640,100.037
2776.0281,100.003
2776.9924,99.9705
2777.9565,99.9384
2778.9209,99.9062
2779.8850,99.8726
2780.8494,99.8369
2781.8135,99.7994
2782.7778,99.7628
2783.7419,99.7311
2784.7063,99.7045
2785.6704,99.6832
2786.6348,99.6654
2787.5989,99.647
2788.5632,99.624
2789.5273,99.5937
2790.4917,99.5564
2791.4558,99.515
2792.4202,99.4738
2793.3843,99.4357
2794.3486,99.4014
2795.3127,99.3685
2796.2771,99.333
2797.2412,99.2914
2798.2056,99.2426
2799.1697,99.188
2800.1340,99.1311
2801.0981,99.0754
2802.0625,99.0231
2803.0266,98.974
2803.9910,98.9256
2804.9551,98.8742
2805.9194,98.8169
2806.8835,98.7523
2807.8479,98.681
2808.8120,98.605
2809.7764,98.526
2810.7405,98.4444
2811.7048,98.3591
2812.6689,98.2683
2813.6333,98.1705
2814.5974,98.0653
2815.5618,97.9527
2816.5259,97.8328
2817.4902,97.7041
2818.4543,97.5642
2819.4187,97.4105
2820.3828,97.2418
2821.3472,97.0588
2822.3113,96.8636
2823.2756,96.6582
2824.2397,96.4427
2825.2041,96.2151
2826.1682,95.972
2827.1326,95.7102
2828.0967,95.4281
2829.0610,95.1262
2830.0251,94.8062
2830.9895,94.4704
2831.9536,94.1215
2832.9180,93.7622
2833.8821,93.3963
2834.8464,93.028
2835.8105,92.6612
2836.7749,92.299
2837.7390,91.9426
2838.7034,91.5915
2839.6675,91.2438
2840.6318,90.895
2841.5959,90.5387
2842.5603,90.1676
2843.5244,89.7767
2844.4888,89.3686
2845.4529,88.9573
2846.4172,88.5679
2847.3813,88.2292
2848.3457,87.9641
2849.3098,87.779
2850.2742,87.6611
2851.2383,87.5839
2852.2026,87.518
2853.1667,87.4418
2854.1311,87.3469
2855.0952,87.2366
2856.0596,87.1187
2857.0237,86.9991
2857.9880,86.8779
2858.9521,86.7503
2859.9165,86.6096
2860.8806,86.4512
2861.8450,86.2747
2862.8091,86.084
2863.7734,85.8859
2864.7375,85.6887
2865.7019,85.4998
2866.6660,85.3243
2867.6304,85.1648
2868.5945,85.0218
2869.5588,84.8951
2870.5229,84.7845
2871.4873,84.6899
2872.4514,84.611
2873.4158,84.546
2874.3799,84.4921
2875.3442,84.4456
2876.3083,84.4026
2877.2727,84.3596
2878.2368,84.3138
2879.2012,84.2638
2880.1653,84.2104
2881.1296,84.1568
2882.0938,84.1091
2883.0581,84.0742
2884.0222,84.0575
2884.9866,84.0606
2885.9507,84.0792
2886.9150,84.1036
2887.8792,84.1208
2888.8435,84.1195
2889.8076,84.0956
2890.7720,84.054
2891.7361,84.0061
2892.7004,83.9609
2893.6646,83.9156
2894.6289,83.8522
2895.5930,83.7441
2896.5574,83.5723
2897.5215,83.3404
2898.4858,83.0797
2899.4500,82.8379
2900.4143,82.6572
2901.3784,82.5545
2902.3428,82.5144
2903.3069,82.4989
2904.2712,82.4669
2905.2354,82.391
2906.1997,82.2632
2907.1638,82.0899
2908.1282,81.8823
2909.0923,81.6493
2910.0566,81.3968
2911.0208,81.1314
2911.9851,80.8636
2912.9492,80.6072
2913.9136,80.3759
2914.8777,80.1794
2915.8420,80.0201
2916.8062,79.8938
2917.7705,79.7918
2918.7346,79.7049
2919.6990,79.626
2920.6631,79.5521
2921.6274,79.4834
2922.5916,79.4218
2923.5559,79.3684
2924.5200,79.3229
2925.4844,79.2845
2926.4485,79.253
2927.4128,79.2309
2928.3770,79.2221
2929.3413,79.2312
2930.3054,79.2617
2931.2698,79.3154
2932.2339,79.3929
2933.1982,79.4949
2934.1624,79.6223
2935.1267,79.7754
2936.0908,79.9531
2937.0552,80.1517
2938.0193,80.365
2938.9836,80.5865
2939.9478,80.811
2940.9121,81.0361
2941.8762,81.2625
2942.8406,81.4912
2943.8047,81.7204
2944.7690,81.944
2945.7332,82.1514
2946.6975,82.3313
2947.6616,82.4755
2948.6260,82.5824
2949.5901,82.6575
2950.5544,82.7103
2951.5186,82.7508
2952.4829,82.7863
2953.4470,82.8206
2954.4114,82.8549
2955.3755,82.8903
2956.3398,82.9294
2957.3040,82.9758
2958.2683,83.0324
2959.2324,83.0994
2960.1968,83.173
2961.1609,83.2468
2962.1252,83.3147
2963.0894,83.3741
2964.0537,83.427
2965.0178,83.479
2965.9822,83.5368
2966.9463,83.606
2967.9106,83.6902
2968.8748,83.7931
2969.8391,83.9188
2970.8032,84.072
2971.7676,84.2556
2972.7317,84.4689
2973.6960,84.7067
2974.6602,84.9616
2975.6245,85.2266
2976.5886,85.4981
2977.5530,85.7758
2978.5171,86.0617
2979.4814,86.3563
2980.4456,86.6562
2981.4099,86.9514
2982.3740,87.2268
2983.3384,87.4673
2984.3025,87.6678
2985.2668,87.8422
2986.2310,88.0255
2987.1953,88.2643
2988.1594,88.5971
2989.1238,89.0341
2990.0879,89.5483
2991.0522,90.0849
2992.0164,90.5848
2992.9807,91.0087
2993.9448,91.351
2994.9092,91.6339
2995.8733,91.8913
2996.8376,92.1496
2997.8018,92.4193
2998.7661,92.6973
2999.7302,92.9762
3000.6946,93.2524
3001.6587,93.5284
3002.6230,93.8104
3003.5872,94.1036
3004.5515,94.4087
3005.5156,94.7209
3006.4800,95.0319
3007.4441,95.3323
3008.4084,95.6155
3009.3726,95.8806
3010.3369,96.1325
3011.3010,96.3801
3012.2654,96.6313
3013.2295,96.8884
3014.1938,97.1465
3015.1580,97.3958
3016.1223,97.6269
3017.0864,97.8349
3018.0508,98.0204
3019.0149,98.1885
3019.9792,98.3454
3020.9434,98.496
3021.9077,98.6433
3022.8718,98.7882
3023.8362,98.93
3024.8003,99.0666
3025.7646,99.1949
3026.7288,99.312
3027.6931,99.4171
3028.6572,99.512
3029.6216,99.6013
3030.5857,99.6894
3031.5500,99.7785
3032.5142,99.8675
3033.4785,99.9537
3034.4426,100.035
3035.4070,100.11
3036.3711,100.182
3037.3354,100.251
3038.2996,100.316
3039.2639,100.373
3040.2280,100.417
3041.1924,100.447
3042.1565,100.462
3043.1208,100.437
3044.0850,100.401
3045.0493,100.367
3046.0134,100.335
3046.9778,100.308
3047.9419,100.283
3048.9063,100.257
3049.8704,100.224
3050.8347,100.183
3051.7988,100.133
3052.7632,100.079
3053.7273,100.027
3054.6917,99.9844
3055.6558,99.953
3056.6201,99.9305
3057.5842,99.91
3058.5486,99.8828
3059.5127,99.8429
3060.4771,99.7889
3061.4412,99.725
3062.4055,99.6594
3063.3696,99.6017
3064.3340,99.5585
3065.2981,99.531
3066.2625,99.5143
3067.2266,99.5
3068.1909,99.4811
3069.1550,99.4545
3070.1194,99.4218
3071.0835,99.3867
3072.0479,99.351
3073.0120,99.3137
3073.9763,99.2712
3074.9404,99.2208
3075.9048,99.1631
3076.8689,99.1033
3077.8333,99.0483
3078.7974,99.0034
3079.7617,98.9696
3080.7258,98.943
3081.6902,98.9174
3082.6543,98.8877
3083.6187,98.8518
3084.5828,98.8108
3085.5471,98.7675
3086.5112,98.7239
3087.4756,98.6796
3088.4397,98.6322
3089.4041,98.5788
3090.3682,98.5179
3091.3325,98.4501
3092.2966,98.3782
3093.2610,98.3054
3094.2251,98.2332
3095.1895,98.1615
3096.1536,98.0889
3097.1179,98.0148
3098.0820,97.9402
3099.0464,97.8679
3100.0105,97.8008
3100.9749,97.7402
3101.9390,97.685
3102.9033,97.6328
3103.8674,97.581
3104.8318,97.5277
3105.7959,97.472
3106.7603,97.4128
3107.7244,97.3492
3108.6887,97.28
3109.6528,97.2055
3110.6172,97.1271
3111.5813,97.0476
3112.5457,96.9692
3113.5098,96.8931
3114.4741,96.8191
3115.4382,96.7463
3116.4026,96.6742
3117.3667,96.6037
3118.3311,96.536
3119.2952,96.472
3120.2595,96.4113
3121.2236,96.3529
3122.1880,96.2953
3123.1521,96.2383
3124.1165,96.1819
3125.0806,96.1261
3126.0449,96.0694
3127.0090,96.0082
3127.9734,95.9388
3128.9375,95.8588
3129.9019,95.7701
3130.8660,95.6783
3131.8303,95.5911
3132.7944,95.515
3133.7588,95.4523
3134.7229,95.4006
3135.6873,95.3538
3136.6514,95.3053
3137.6157,95.2504
3138.5798,95.1873
3139.5442,95.1168
3140.5083,95.0406
3141.4727,94.9604
3142.4368,94.8769
3143.4011,94.7903
3144.3652,94.7012
3145.3296,94.6119
3146.2937,94.5265
3147.2581,94.4497
3148.2222,94.3845
3149.1865,94.3299
3150.1506,94.2803
3151.1150,94.2273
3152.0791,94.1636
3153.0435,94.0861
3154.0076,93.9977
3154.9719,93.9049
3155.9360,93.8141
3156.9004,93.729
3157.8645,93.6492
3158.8289,93.5723
3159.7930,93.4959
3160.7573,93.4187
3161.7214,93.3411
3162.6858,93.2631
3163.6499,93.1847
3164.6143,93.1054
3165.5784,93.026
3166.5427,92.949
3167.5068,92.8772
3168.4712,92.812
3169.4353,92.8083
3170.3997,92.7461
3171.3638,92.6759
3172.3281,92.5938
3173.2922,92.501
3174.2566,92.4037
3175.2207,92.3098
3176.1851,92.2255
3177.1492,92.1525
3178.1135,92.0879
3179.0776,92.0259
3180.0420,91.962
3181.0061,91.8944
3181.9705,91.8249
3182.9346,91.7562
3183.8989,91.6904
3184.8630,91.6272
3185.8274,91.5643
3186.7915,91.4992
3187.7559,91.4305
3188.7200,91.3589
3189.6843,91.286
3190.6484,91.2137
3191.6128,91.1424
3192.5769,91.0714
3193.5413,90.9997
3194.5054,90.9269
3195.4697,90.8543
3196.4338,90.7835
3197.3982,90.716
3198.3623,90.652
3199.3267,90.5905
3200.2908,90.5306
3201.2551,90.4716
3202.2192,90.4136
3203.1836,90.356
3204.1477,90.2977
3205.1121,90.2371
3206.0762,90.1735
3207.0405,90.1079
3208.0046,90.0429
3208.9690,89.9804
3209.9331,89.9211
3210.8975,89.8635
3211.8616,89.8059
3212.8259,89.7479
3213.7900,89.6917
3214.7544,89.6401
3215.7185,89.5947
3216.6829,89.5538
3217.6470,89.5134
3218.6113,89.4686
3219.5754,89.4168
3220.5398,89.3581
3221.5039,89.2948
3222.4683,89.2292
3223.4324,89.1635
3224.3967,89.0992
3225.3608,89.0384
3226.3252,88.9846
3227.2893,88.9409
3228.2537,88.9085
3229.2178,88.8847
3230.1821,88.8631
3231.1462,88.8356
3232.1106,88.7965
3233.0747,88.7448
3234.0391,88.6849
3235.0032,88.6237
3235.9675,88.5667
3236.9316,88.5155
3237.8960,88.4675
3238.8601,88.419
3239.8245,88.3679
3240.7886,88.3158
3241.7529,88.2668
3242.7170,88.2244
3243.6814,88.1894
3244.6455,88.1593
3245.6099,88.1303
3246.5740,88.0994
3247.5383,88.0664
3248.5024,88.0324
3249.4668,87.9981
3250.4309,87.9625
3251.3953,87.9228
3252.3594,87.8768
3253.3237,87.8244
3254.2878,87.7688
3255.2522,87.7153
3256.2163,87.669
3257.1807,87.6325
3258.1448,87.6051
3259.1091,87.5827
3260.0732,87.5598
3261.0376,87.532
3262.0017,87.4978
3262.9661,87.4586
3263.9302,87.4172
3264.8945,87.3751
3265.8586,87.332
3266.8230,87.2856
3267.7871,87.2341
3268.7515,87.1782
3269.7156,87.1218
3270.6799,87.0699
3271.6440,87.0266
3272.6084,86.9931
3273.5725,86.9678
3274.5369,86.9483
3275.5010,86.9326
3276.4653,86.9189
3277.4294,86.9048
3278.3938,86.887
3279.3579,86.8621
3280.3223,86.8289
3281.2864,86.79
3282.2507,86.7512
3283.2148,86.7179
3284.1792,86.692
3285.1433,86.6702
3286.1077,86.6462
3287.0718,86.6143
3288.0361,86.5732
3289.0002,86.5265
3289.9646,86.4809
3290.9287,86.4427
3291.8931,86.4155
3292.8572,86.3992
3293.8215,86.3908
3294.7856,86.3857
3295.7500,86.3786
3296.7141,86.3639
3297.6785,86.3377
3298.6426,86.299
3299.6069,86.2513
3300.5710,86.2009
3301.5354,86.1548
3302.4995,86.1179
3303.4639,86.0909
3304.4280,86.0713
3305.3923,86.0557
3306.3564,86.0411
3307.3208,86.0261
3308.2849,86.0102
3309.2493,85.9931
3310.2134,85.9744
3311.1777,85.9544
3312.1418,85.9338
3313.1062,85.9138
3314.0703,85.8944
3315.0347,85.8749
3315.9988,85.8538
3316.9631,85.8307
3317.9272,85.8069
3318.8916,85.7846
3319.8557,85.7656
3320.8201,85.749
3321.7842,85.7313
3322.7485,85.7085
3323.7126,85.6791
3324.6770,85.6458
3325.6411,85.6147
3326.6055,85.5913
3327.5696,85.5779
3328.5339,85.5708
3329.4980,85.5637
3330.4624,85.551
3331.4265,85.532
3332.3909,85.5114
3333.3550,85.4965
3334.3193,85.4924
3335.2834,85.4978
3336.2478,85.505
3337.2119,85.5039
3338.1763,85.488
3339.1404,85.4582
3340.1047,85.422
3341.0688,85.3892
3342.0332,85.3661
3342.9973,85.3527
3343.9617,85.3439
3344.9258,85.3343
3345.8901,85.3222
3346.8542,85.3107
3347.8186,85.3047
3348.7827,85.3064
3349.7471,85.3129
3350.7112,85.3168
3351.6755,85.3113
3352.6396,85.2943
3353.6040,85.2703
3354.5681,85.2477
3355.5325,85.234
3356.4966,85.2311
3357.4609,85.2346
3358.4250,85.2369
3359.3894,85.232
3360.3535,85.2188
3361.3179,85.2017
3362.2820,85.1875
3363.2463,85.1812
3364.2104,85.1835
3365.1748,85.1914
3366.1389,85.2009
3367.1033,85.2106
3368.0674,85.2225
3369.0317,85.2397
3369.9958,85.2628
3370.9602,85.2875
3371.9243,85.3056
3372.8887,85.31
3373.8528,85.2997
3374.8171,85.2818
3375.7813,85.2682
3376.7456,85.2682
3377.7097,85.2821
3378.6741,85.3006
3379.6382,85.311
3380.6025,85.3059
3381.5667,85.2887
3382.5310,85.2718
3383.4951,85.268
3384.4595,85.282
3385.4236,85.3072
3386.3879,85.3313
3387.3521,85.3453
3388.3164,85.3506
3389.2805,85.357
3390.2449,85.3745
3391.2090,85.4051
3392.1733,85.4398
3393.1375,85.4661
3394.1018,85.4775
3395.0659,85.4803
3396.0303,85.4896
3396.9944,85.5183
3397.9587,85.5673
3398.9229,85.6226
3399.8872,85.6643
3400.8513,85.6792
3401.8157,85.67
3402.7798,85.6538
3403.7441,85.6519
3404.7083,85.6771
3405.6726,85.7272
3406.6367,85.7876
3407.6011,85.8407
3408.5652,85.876
3409.5295,85.895
3410.4937,85.9071
3411.4580,85.9224
3412.4221,85.9437
3413.3865,85.966
3414.3506,85.9814
3415.3149,85.9868
3416.2791,85.9877
3417.2434,85.997
3418.2075,86.0271
3419.1719,86.0822
3420.1360,86.1542
3421.1003,86.2275
3422.0645,86.2886
3423.0288,86.3352
3423.9929,86.3757
3424.9573,86.4218
3425.9214,86.4789
3426.8857,86.5437
3427.8499,86.6074
3428.8142,86.6642
3429.7783,86.7173
3430.7427,86.7769
3431.7068,86.8518
3432.6711,86.941
3433.6353,87.0322
3434.5996,87.1083
3435.5637,87.1587
3436.5281,87.1858
3437.4922,87.2033
3438.4565,87.2268
3439.4207,87.2643
3440.3850,87.3115
3441.3491,87.3568
3442.3135,87.3905
3443.2776,87.4129
3444.2419,87.4357
3445.2061,87.4751
3446.1704,87.5422
3447.1345,87.6343
3448.0989,87.7366
3449.0630,87.8322
3450.0273,87.9125
3450.9915,87.9799
3451.9558,88.0434
3452.9199,88.1104
3453.8843,88.1817
3454.8484,88.252
3455.8127,88.3141
3456.7769,88.3653
3457.7412,88.4099
3458.7053,88.4569
3459.6697,88.515
3460.6338,88.5872
3461.5981,88.6696
3462.5623,88.754
3463.5266,88.8336
3464.4907,88.907
3465.4551,88.9777
3466.4192,89.0503
3467.3835,89.1256
3468.3477,89.1993
3469.3120,89.2639
3470.2761,89.3149
3471.2405,89.3551
3472.2046,89.3946
3473.1689,89.4459
3474.1331,89.5168
3475.0974,89.6044
3476.0615,89.6967
3477.0259,89.7801
3477.9900,89.8471
3478.9543,89.9009
3479.9185,89.9525
3480.8828,90.0138
3481.8469,90.0894
3482.8113,90.1737
3483.7754,90.2564
3484.7397,90.3303
3485.7039,90.3967
3486.6682,90.4636
3487.6323,90.5404
3488.5967,90.631
3489.5608,90.7303
3490.5251,90.8271
3491.4893,90.9116
3492.4536,90.9808
3493.4177,91.041
3494.3821,91.104
3495.3462,91.1787
3496.3105,91.2636
3497.2747,91.3458
3498.2390,91.4094
3499.2031,91.4469
3500.1675,91.4665
3501.1316,91.4918
3502.0959,91.5514
3503.0601,91.6585
3504.0244,91.7999
3504.9885,91.9455
3505.9529,92.0702
3506.9170,92.1662
3507.8813,92.2414
3508.8455,92.3115
3509.8098,92.3897
3510.7739,92.4791
3511.7383,92.5738
3512.7024,92.6669
3513.6667,92.757
3514.6309,92.8476
3515.5952,92.9424
3516.5593,93.0405
3517.5237,93.1361
3518.4878,93.2217
3519.4521,93.292
3520.4163,93.3472
3521.3806,93.3935
3522.3447,93.4407
3523.3091,93.498
3524.2732,93.5711
3525.2375,93.6619
3526.2017,93.7705
3527.1660,93.8956
3528.1301,94.0324
3529.0945,94.1718
3530.0586,94.3029
3531.0229,94.4192
3531.9871,94.5226
3532.9514,94.6217
3533.9155,94.7272
3534.8799,94.8475
3535.8440,94.9835
3536.8083,95.1259
3537.7725,95.2582
3538.7368,95.3647
3539.7009,95.4384
3540.6653,95.4837
3541.6294,95.5152
3542.5938,95.5556
3543.5579,95.6328
3544.5222,95.7674
3545.4863,95.9542
3546.4507,96.1582
3547.4148,96.3385
3548.3792,96.4778
3549.3433,96.5882
3550.3076,96.6973
3551.2717,96.8292
3552.2361,96.9911
3553.2002,97.1686
3554.1646,97.3362
3555.1287,97.4766
3556.0930,97.5896
3557.0571,97.6856
3558.0215,97.7745
3558.9856,97.8584
3559.9500,97.9318
3560.9141,97.988
3561.8784,98.0262
3562.8425,98.0531
3563.8069,98.0841
3564.7710,98.1514
3565.7354,98.308
3566.6995,98.5819
3567.6638,98.9097
3568.6279,99.1767
3569.5923,99.3305
3570.5564,99.4011
3571.5208,99.4443
3572.4849,99.4962
3573.4492,99.566
3574.4133,99.6472
3575.3777,99.7315
3576.3418,99.8152
3577.3062,99.8989
3578.2703,99.982
3579.2346,100.059
3580.1987,100.123
3581.1631,100.171
3582.1272,100.208
3583.0916,100.243
3584.0557,100.282
3585.0200,100.328
3585.9841,100.397
3586.9485,100.503
3587.9126,100.621
3588.8770,100.69
3589.8411,100.686
3590.8054,100.635
3591.7695,100.552
3592.7339,100.486
3593.6980,100.447
3594.6624,100.425
3595.6265,100.407
3596.5908,100.383
3597.5549,100.36
3598.5193,100.361
3599.4834,100.403
3600.4478,100.484
3601.4119,100.582
3602.3762,100.669
3603.3403,100.736
3604.3047,100.788
3605.2688,100.835
3606.2332,100.883
3607.1973,100.939
3608.1616,100.998
3609.1257,101.042
3610.0901,101.048
3611.0542,101.009
3612.0186,100.937
3612.9829,100.855
3613.9470,100.785
3614.9114,100.741
3615.8755,100.724
3616.8398,100.732
3617.8040,100.762
3618.7683,100.804
3619.7324,100.828
3620.6968,100.791
3621.6609,100.686
3622.6252,100.559
3623.5894,100.478
3624.5537,100.482
3625.5178,100.555
3626.4822,100.647
3627.4463,100.722
3628.4106,100.788
3629.3748,100.829
3630.3391,100.79
3631.3032,100.674
3632.2676,100.548
3633.2317,100.47
3634.1960,100.456
3635.1602,100.48
3636.1245,100.509
3637.0886,100.519
3638.0530,100.507
3639.0171,100.476
3639.9814,100.43
3640.9456,100.368
3641.9099,100.298
3642.8740,100.233
3643.8384,100.186
3644.8025,100.146
3645.7668,100.066
3646.7310,99.9
3647.6953,99.7157
3648.6594,99.7151
3649.6238,99.9202
3650.5879,100.088
3651.5522,100.09
3652.5164,99.9906
3653.4807,99.8861
3654.4448,99.8141
3655.4092,99.7624
3656.3733,99.704
3657.3376,99.624
3658.3018,99.5305
3659.2661,99.4499
3660.2302,99.4055
3661.1946,99.3978
3662.1587,99.4064
3663.1230,99.4106
3664.0872,99.4087
3665.0515,99.4124
3666.0156,99.4241
3666.9800,99.4209
3667.9441,99.3744
3668.9084,99.2924
3669.8726,99.2152
3670.8369,99.1628
3671.8010,99.124
3672.7654,99.08
3673.7295,99.0217
3674.6938,98.9753
3675.6580,98.9932
3676.6223,99.0685
3677.5864,99.1306
3678.5508,99.1443
3679.5149,99.1272
3680.4792,99.0994
3681.4434,99.0632
3682.4077,99.0189
3683.3718,98.9797
3684.3362,98.9636
3685.3003,98.9678
3686.2646,98.9528
3687.2288,98.8698
3688.1931,98.7323
3689.1572,98.6355
3690.1216,98.6387
3691.0857,98.6965
3692.0500,98.7491
3693.0142,98.7835
3693.9785,98.811
3694.9426,98.8423
3695.9070,98.8837
3696.8711,98.9391
3697.8354,99.0096
3698.7996,99.0892
3699.7639,99.1658
3700.7280,99.2274
3701.6924,99.2651
3702.6565,99.2731
3703.6208,99.2529
3704.5850,99.2197
3705.5493,99.1932
3706.5134,99.1803
3707.4778,99.1674
3708.4419,99.1415
3709.4063,99.1366
3710.3704,99.2379
3711.3347,99.4681
3712.2988,99.7063
3713.2632,99.8182
3714.2273,99.785
3715.1917,99.6761
3716.1558,99.5841
3717.1201,99.4997
3718.0842,99.4213
3719.0486,99.336
3720.0127,99.2383
3720.9771,99.1384
3721.9412,99.0607
3722.9055,99.0331
3723.8696,99.072
3724.8340,99.1666
3725.7981,99.2782
3726.7625,99.3653
3727.7266,99.4123
3728.6909,99.4304
3729.6550,99.4354
3730.6194,99.4281
3731.5835,99.395
3732.5479,99.3348
3733.5120,99.2947
3734.4763,99.3494
3735.4404,99.494
3736.4048,99.6174
3737.3689,99.6473
3738.3333,99.6338
3739.2974,99.6829
3740.2617,99.8648
3741.2258,100.165
3742.1902,100.482
3743.1543,100.673
3744.1187,100.654
3745.0828,100.453
3746.0471,100.177
3747.0112,99.9249
3747.9756,99.7522
3748.9397,99.6727
3749.9041,99.7038
3750.8682,99.8446
3751.8325,99.9928
3752.7966,100.027
3753.7610,99.944
3754.7251,99.823
3755.6895,99.7262
3756.6536,99.6756
3757.6179,99.6748
3758.5820,99.7227
3759.5464,99.8015
3760.5105,99.877
3761.4749,99.9235
3762.4390,99.937
3763.4033,99.9272
3764.3674,99.908
3765.3318,99.8953
3766.2959,99.9032
3767.2603,99.937
3768.2244,99.9897
3769.1887,100.045
3770.1528,100.086
3771.1172,100.099
3772.0813,100.085
3773.0457,100.06
3774.0098,100.043
3774.9741,100.04
3775.9382,100.041
3776.9026,100.031
3777.8667,100.006
3778.8311,99.9791
3779.7952,99.9564
3780.7595,99.9319
3781.7236,99.8987
3782.6880,99.8606
3783.6521,99.8325
3784.6165,99.8327
3785.5806,99.8726
3786.5449,99.9467
3787.5090,100.033
3788.4734,100.108
3789.4375,100.153
3790.4019,100.167
3791.3660,100.153
3792.3303,100.113
3793.2944,100.048
3794.2588,99.9642
3795.2229,99.8783
3796.1873,99.8152
3797.1514,99.7904
3798.1157,99.7987
3799.0798,99.8188
3800.0442,99.8351
3801.0083,99.8487
3801.9727,99.8639
3802.9368,99.8796
3803.9011,99.9044
3804.8652,99.9547
3805.8296,100.034
3806.7937,100.118
3807.7581,100.167
3808.7222,100.155
3809.6865,100.107
3810.6506,100.079
3811.6150,100.109
3812.5791,100.182
3813.5435,100.24
3814.5076,100.226
3815.4719,100.133
3816.4360,99.9956
3817.4004,99.8588
3818.3645,99.7518
3819.3289,99.6951
3820.2930,99.7004
3821.2573,99.748
3822.2214,99.7836
3823.1858,99.7707
3824.1499,99.7266
3825.1143,99.6954
3826.0784,99.7091
3827.0427,99.7715
3828.0068,99.8634
3828.9712,99.9569
3829.9353,100.03
3830.8997,100.073
3831.8638,100.09
3832.8281,100.089
3833.7922,100.07
3834.7566,100.024
3835.7207,99.9353
3836.6851,99.808
3837.6492,99.6798
3838.6135,99.601
3839.5776,99.5943
3840.5420,99.6496
3841.5061,99.7467
3842.4705,99.8628
3843.4346,99.9655
3844.3989,100.018
3845.3630,100.002
3846.3274,99.9412
3847.2915,99.891
3848.2559,99.9134
3849.2200,100.038
3850.1843,100.238
3851.1484,100.44
3852.1128,100.6
3853.0769,100.735
3854.0413,100.782
3855.0054,100.636
3855.9697,100.351
3856.9338,100.08
3857.8982,99.927
3858.8623,99.9045
3859.8267,99.9566
3860.7908,100.002
3861.7551,99.9894
3862.7192,99.9322
3863.6836,99.8918
3864.6477,99.9123
3865.6121,99.9887
3866.5762,100.083
3867.5405,100.149
3868.5046,100.158
3869.4690,100.113
3870.4331,100.055
3871.3975,100.026
3872.3616,100.037
3873.3259,100.067
3874.2900,100.098
3875.2544,100.125
3876.2185,100.149
3877.1829,100.166
3878.1470,100.164
3879.1113,100.136
3880.0754,100.097
3881.0398,100.072
3882.0039,100.087
3882.9683,100.145
3883.9324,100.232
3884.8967,100.317
3885.8608,100.366
3886.8252,100.366
3887.7893,100.327
3888.7537,100.269
3889.7178,100.209
3890.6821,100.158
3891.6462,100.123
3892.6106,100.101
3893.5747,100.084
3894.5391,100.076
3895.5032,100.092
3896.4675,100.132
3897.4316,100.178
3898.3960,100.206
3899.3601,100.212
3900.3245,100.201
3901.2886,100.182
3902.2529,100.16
3903.2170,100.144
3904.1814,100.142
3905.1455,100.147
3906.1099,100.157
3907.0740,100.174
3908.0383,100.203
3909.0024,100.242
3909.9668,100.279
3910.9309,100.304
3911.8953,100.313
3912.8594,100.313
3913.8237,100.31
3914.7878,100.31
3915.7522,100.311
3916.7163,100.312
3917.6807,100.306
3918.6448,100.284
3919.6091,100.243
3920.5732,100.193
3921.5376,100.15
3922.5017,100.126
3923.4661,100.125
3924.4302,100.138
3925.3945,100.149
3926.3586,100.144
3927.3230,100.125
3928.2871,100.098
3929.2515,100.078
3930.2156,100.075
3931.1799,100.1
3932.1440,100.149
3933.1084,100.206
3934.0725,100.256
3935.0369,100.291
3936.0010,100.316
3936.9653,100.333
3937.9294,100.34
3938.8938,100.331
3939.8579,100.303
3940.8223,100.261
3941.7864,100.221
3942.7507,100.198
3943.7148,100.196
3944.6792,100.207
3945.6433,100.216
3946.6077,100.214
3947.5718,100.2
3948.5361,100.184
3949.5002,100.178
3950.4646,100.188
3951.4287,100.212
3952.3931,100.242
3953.3572,100.27
3954.3215,100.287
3955.2856,100.291
3956.2500,100.281
3957.2141,100.263
3958.1785,100.243
3959.1426,100.23
3960.1069,100.233
3961.0710,100.253
3962.0354,100.287
3962.9995,100.324
3963.9639,100.351
3964.9280,100.362
3965.8923,100.356
3966.8564,100.339
3967.8208,100.318
3968.7849,100.297
3969.7493,100.281
3970.7134,100.272
3971.6777,100.271
3972.6418,100.278
3973.6062,100.292
3974.5703,100.308
3975.5347,100.323
3976.4988,100.331
3977.4631,100.335
3978.4272,100.336
3979.3916,100.337
3980.3557,100.339
3981.3201,100.34
3982.2842,100.336
3983.2485,100.328
3984.2126,100.317
3985.1770,100.312
3986.1411,100.315
3987.1055,100.329
3988.0696,100.346
3989.0339,100.356
3989.9980,100.349
3990.9624,100.323
3991.9265,100.285
3992.8909,100.251
3993.8550,100.235
3994.8193,100.245
3995.7834,100.276
3996.7478,100.316
3997.7119,100.35
3998.6763,100.367
3999.6404,100.367
4000.6047,100.185

##### Extended Information
[Comments]
Sample name
Comment
User
Division
Company,HANKYONG

[Detailed Information]
Creation date,4/24/2024 11:21 AM

Data array type,Linear data array
Horizontal axis,Wavenumber [cm-1]
Vertical axis,%T
Start,649.893 cm-1
End,4000.6 cm-1
Data interval,0.964233 cm-1
Data points,3476    

[Measurement Information]
Model Name,FT/IR-4700typeA
Serial Number,D056761788

Accessory,ATR PRO ONE
Accessory S/N,C174761809
Incident angle,45 deg

Measurement Date,4/24/2024 11:20 AM

Light Source,Standard
Detector,TGS
Accumulation,32
Resolution,4 cm-1
Zero Filling,On
Apodization,Cosine
Gain,Auto (4)
Aperture,Auto (7.1 mm)
Scanning Speed,Auto (2 mm/sec)
Filter,Auto (30000 Hz)

