TITLE,
DATA TYPE,INFRARED SPECTRUM
ORIGIN,JASCO
OWNER,
DATE,24/04/24
TIME,11:49:43
SPECTROMETER/DATA SYSTEM,
LOCALE,1033
RESOLUTION,
DELTAX,0.964233
XUNITS,1/CM
YUNITS,TRANSMITTANCE
FIRSTX,  649.8934
LASTX, 4000.6047
NPOINTS,    3476
FIRSTY,    99.01795
MAXY,   101.64777
MINY,    60.43816
XYDATA
649.8934,99.018
650.8576,99.0258
651.8218,99.1085
652.7861,99.2194
653.7503,99.3176
654.7145,99.3825
655.6788,99.4144
656.6430,99.4244
657.6072,99.4251
658.5715,99.3307
659.5357,99.2411
660.4999,99.1935
661.4642,99.1907
662.4284,99.2032
663.3926,99.1693
664.3569,99.0078
665.3211,98.6291
666.2853,97.969
667.2496,97.1049
668.2138,96.4039
669.1780,96.2953
670.1423,96.7351
671.1065,97.3377
672.0707,97.8289
673.0350,98.119
673.9992,98.2116
674.9634,98.1521
675.9277,98.0124
676.8919,97.874
677.8561,97.8013
678.8204,97.8263
679.7846,97.952
680.7488,98.1607
681.7131,98.4199
682.6773,98.6898
683.6415,98.9372
684.6058,99.147
685.5700,99.3216
686.5342,99.4682
687.4985,99.5851
688.4627,99.6573
689.4269,99.6654
690.3912,99.6011
691.3554,99.4882
692.3196,99.3988
693.2839,99.4321
694.2481,99.6375
695.2123,99.9612
696.1766,100.299
697.1408,100.572
698.1050,100.743
699.0693,100.812
700.0335,100.795
700.9977,100.722
701.9620,100.622
702.9262,100.527
703.8904,100.464
704.8547,100.452
705.8189,100.497
706.7831,100.578
707.7474,100.662
708.7116,100.708
709.6758,100.687
710.6401,100.591
711.6043,100.427
712.5685,100.209
713.5328,99.9484
714.4970,99.6494
715.4612,99.4999
716.4255,99.1235
717.3897,98.7614
718.3539,98.4772
719.3182,98.3409
720.2824,98.395
721.2466,98.6256
722.2109,98.9643
723.1751,99.3197
724.1393,99.6153
725.1036,99.8091
726.0678,99.8937
727.0320,99.8868
727.9963,99.8181
728.9605,99.7199
729.9247,99.6188
730.8890,99.5297
731.8532,99.45
732.8174,99.357
733.7817,99.2123
734.7459,98.9743
735.7101,98.615
736.6744,98.1316
737.6386,97.5489
738.6028,96.9109
739.5671,96.2658
740.5313,95.6539
741.4955,95.1007
742.4598,94.618
743.4240,94.2089
744.3882,93.8735
745.3525,93.6128
746.3167,93.4296
747.2809,93.3272
748.2452,93.3061
749.2094,93.3598
750.1736,93.4718
751.1379,93.6181
752.1021,93.7736
753.0663,93.9204
754.0306,94.0532
754.9948,94.1772
755.9590,94.2999
756.9233,94.4219
757.8875,94.5327
758.8517,94.6162
759.8160,94.6611
760.7802,94.6698
761.7444,94.6599
762.7087,94.656
763.6729,94.6794
764.6371,94.7412
765.6014,94.8439
766.5656,94.9887
767.5298,95.1803
768.4941,95.4257
769.4583,95.7258
770.4225,96.068
771.3868,96.4248
772.3510,96.762
773.3152,97.0505
774.2795,97.2751
775.2437,97.4347
776.2079,97.5361
777.1722,97.5858
778.1364,97.5865
779.1006,97.539
780.0649,97.4466
781.0291,97.318
781.9933,97.1648
782.9576,96.9973
783.9218,96.8214
784.8860,96.64
785.8503,96.4575
786.8145,96.283
787.7787,96.1299
788.7430,96.01
789.7072,95.927
790.6714,95.8736
791.6357,95.8338
792.5999,95.7898
793.5641,95.729
794.5284,95.6474
795.4926,95.5484
796.4568,95.4379
797.4211,95.3192
798.3853,95.1909
799.3495,95.0473
800.3138,94.8812
801.2780,94.688
802.2422,94.469
803.2065,94.2312
804.1707,93.9854
805.1349,93.7426
806.0992,93.5103
807.0634,93.2913
808.0276,93.0842
808.9919,92.8858
809.9561,92.6923
810.9203,92.5012
811.8846,92.3123
812.8488,92.1299
813.8130,91.9631
814.7773,91.8251
815.7415,91.7276
816.7057,91.676
817.6700,91.665
818.6342,91.68
819.5984,91.7038
820.5627,91.7239
821.5269,91.7364
822.4911,91.7449
823.4554,91.756
824.4196,91.774
825.3839,91.7993
826.3481,91.8295
827.3123,91.8613
828.2766,91.8913
829.2408,91.9154
830.2050,91.9278
831.1693,91.9215
832.1335,91.8898
833.0977,91.8281
834.0620,91.7346
835.0262,91.6092
835.9904,91.4533
836.9547,91.27
837.9189,91.0644
838.8831,90.8449
839.8474,90.6213
840.8116,90.4027
841.7758,90.194
842.7401,89.9948
843.7043,89.7999
844.6685,89.6031
845.6328,89.4004
846.5970,89.1922
847.5612,88.9824
848.5255,88.7768
849.4897,88.5813
850.4539,88.4011
851.4182,88.2415
852.3824,88.1077
853.3466,88.0039
854.3109,87.9303
855.2751,87.8818
856.2393,87.8481
857.2036,87.8183
858.1678,87.7846
859.1320,87.7474
860.0963,87.7147
861.0605,87.7003
862.0247,87.7181
862.9890,87.7772
863.9532,87.8782
864.9174,88.0121
865.8817,88.1635
866.8459,88.3161
867.8101,88.4584
868.7744,88.5874
869.7386,88.706
870.7028,88.8176
871.6671,88.919
872.6313,88.9991
873.5955,89.0429
874.5598,89.0396
875.5240,88.9899
876.4882,88.9055
877.4525,88.8044
878.4167,88.7015
879.3809,88.604
880.3452,88.511
881.3094,88.419
882.2736,88.3273
883.2379,88.2405
884.2021,88.1673
885.1663,88.1178
886.1306,88.1006
887.0948,88.1214
888.0590,88.184
889.0233,88.2895
889.9875,88.4361
890.9517,88.6188
891.9160,88.8305
892.8802,89.0638
893.8444,89.3139
894.8087,89.5791
895.7729,89.8582
896.7371,90.1477
897.7014,90.4388
898.6656,90.7184
899.6298,90.9727
900.5941,91.1928
901.5583,91.3769
902.5225,91.5298
903.4868,91.6585
904.4510,91.7672
905.4152,91.8549
906.3795,91.9159
907.3437,91.9436
908.3079,91.9346
909.2722,91.8916
910.2364,91.8245
911.2006,91.7484
912.1649,91.6806
913.1291,91.6365
914.0933,91.6271
915.0576,91.6577
916.0218,91.7293
916.9860,91.841
917.9503,91.9922
918.9145,92.1822
919.8787,92.4091
920.8430,92.6675
921.8072,92.9477
922.7714,93.2374
923.7357,93.5242
924.6999,93.7994
925.6641,94.0596
926.6284,94.3076
927.5926,94.5511
928.5568,94.8013
929.5211,95.0693
930.4853,95.3638
931.4495,95.6888
932.4138,96.0442
933.3780,96.4275
934.3422,96.836
935.3065,97.2669
936.2707,97.7157
937.2349,98.1728
938.1992,98.623
939.1634,99.0481
940.1276,99.4328
941.0919,99.7696
942.0561,100.06
943.0203,100.309
943.9846,100.524
944.9488,100.703
945.9130,100.841
946.8773,100.93
947.8415,100.967
948.8057,100.955
949.7700,100.906
950.7342,100.832
951.6984,100.744
952.6627,100.649
953.6269,100.541
954.5911,100.414
955.5554,100.257
956.5196,100.066
957.4838,99.8394
958.4481,99.5798
959.4123,99.2894
960.3765,98.9893
961.3408,98.7429
962.3050,98.4636
963.2692,98.1593
964.2335,97.8455
965.1977,97.5414
966.1619,97.2636
967.1262,97.021
968.0904,96.813
969.0546,96.6328
970.0189,96.4717
970.9831,96.3228
971.9473,96.1825
972.9116,96.0494
973.8758,95.9222
974.8400,95.7979
975.8043,95.6713
976.7685,95.5351
977.7327,95.3813
978.6970,95.2031
979.6612,94.9962
980.6254,94.7585
981.5897,94.4901
982.5539,94.1915
983.5181,93.8634
984.4824,93.5066
985.4466,93.1242
986.4108,92.7229
987.3751,92.3146
988.3393,91.9154
989.3035,91.5438
990.2678,91.2165
991.2320,90.9438
992.1962,90.727
993.1605,90.5577
994.1247,90.4214
995.0889,90.303
996.0532,90.1913
997.0174,90.0801
997.9816,89.9649
998.9459,89.8391
999.9101,89.6927
1000.8743,89.5137
1001.8386,89.2923
1002.8028,89.0227
1003.7670,88.7019
1004.7313,88.3257
1005.6955,87.8868
1006.6597,87.3762
1007.6240,86.7875
1008.5882,86.1201
1009.5524,85.3788
1010.5167,84.5705
1011.4809,83.7002
1012.4451,82.7696
1013.4094,81.7795
1014.3736,80.732
1015.3378,79.6317
1016.3021,78.485
1017.2663,77.2997
1018.2305,76.0841
1019.1948,74.8468
1020.1590,73.595
1021.1232,72.3322
1022.0875,71.0575
1023.0517,69.7709
1024.0160,68.4816
1024.9802,67.2148
1025.9445,66.0098
1026.9087,64.9095
1027.8729,63.9449
1028.8372,63.1247
1029.8014,62.4368
1030.7656,61.8594
1031.7299,61.3758
1032.6941,60.9823
1033.6583,60.6874
1034.6226,60.5035
1035.5868,60.4382
1036.5510,60.4887
1037.5153,60.6409
1038.4795,60.8719
1039.4437,61.1533
1040.4080,61.4563
1041.3722,61.7574
1042.3364,62.0435
1043.3007,62.3137
1044.2649,62.5771
1045.2291,62.8474
1046.1934,63.1379
1047.1576,63.46
1048.1218,63.8251
1049.0861,64.2462
1050.0503,64.737
1051.0145,65.3068
1051.9788,65.9552
1052.9430,66.6717
1053.9072,67.4414
1054.8715,68.2543
1055.8357,69.1096
1056.7999,70.0109
1057.7642,70.9514
1058.7284,71.9002
1059.6926,72.7998
1060.6569,73.581
1061.6211,74.1919
1062.5853,74.6248
1063.5496,74.9259
1064.5138,75.1783
1065.4780,75.4658
1066.4423,75.8343
1067.4065,76.2725
1068.3707,76.7199
1069.3350,77.0975
1070.2992,77.3437
1071.2634,77.4358
1072.2277,77.3902
1073.1919,77.2441
1074.1561,77.0348
1075.1204,76.7858
1076.0846,76.5075
1077.0488,76.2053
1078.0131,75.8885
1078.9773,75.5723
1079.9415,75.2721
1080.9058,74.9963
1081.8700,74.7425
1082.8342,74.4996
1083.7985,74.2565
1084.7627,74.0104
1085.7269,73.7713
1086.6912,73.5595
1087.6554,73.3969
1088.6196,73.2959
1089.5839,73.2513
1090.5481,73.2398
1091.5123,73.2283
1092.4766,73.1874
1093.4408,73.1041
1094.4050,72.987
1095.3693,72.8621
1096.3335,72.7601
1097.2977,72.7031
1098.2620,72.6979
1099.2262,72.7365
1100.1904,72.8051
1101.1547,72.8922
1102.1189,72.9947
1103.0831,73.1166
1104.0474,73.2663
1105.0116,73.4534
1105.9758,73.6884
1106.9401,73.9837
1107.9043,74.353
1108.8685,74.808
1109.8328,75.353
1110.7970,75.9822
1111.7612,76.6813
1112.7255,77.4337
1113.6897,78.2275
1114.6539,79.0596
1115.6182,79.9338
1116.5824,80.8558
1117.5466,81.8274
1118.5109,82.8452
1119.4751,83.9031
1120.4393,84.9966
1121.4036,86.1249
1122.3678,87.2892
1123.3320,88.4869
1124.2963,89.7062
1125.2605,90.9244
1126.2247,92.1123
1127.1890,93.2411
1128.1532,94.2898
1129.1174,95.2471
1130.0817,96.1086
1131.0459,96.8707
1132.0101,97.5264
1132.9744,98.0657
1133.9386,98.4796
1134.9028,98.7641
1135.8671,98.9216
1136.8313,98.9571
1137.7955,98.8743
1138.7598,98.6739
1139.7240,98.356
1140.6882,97.9265
1141.6525,97.3999
1142.6167,96.7788
1143.5809,96.0322
1144.5452,95.2666
1145.5094,94.5054
1146.4736,93.77
1147.4379,93.0826
1148.4021,92.4651
1149.3663,91.9352
1150.3306,91.5017
1151.2948,91.161
1152.2590,90.8994
1153.2233,90.6979
1154.1875,90.5371
1155.1517,90.3981
1156.1160,90.2623
1157.0802,90.1093
1158.0444,89.9179
1159.0087,89.6701
1159.9729,89.3561
1160.9371,88.9763
1161.9014,88.5401
1162.8656,88.0601
1163.8298,87.5472
1164.7941,87.0083
1165.7583,86.4477
1166.7225,85.8722
1167.6868,85.2929
1168.6510,84.7245
1169.6152,84.1803
1170.5795,83.6672
1171.5437,83.1838
1172.5079,82.7228
1173.4722,82.2759
1174.4364,81.8382
1175.4006,81.4074
1176.3649,80.9812
1177.3291,80.5539
1178.2933,80.1168
1179.2576,79.662
1180.2218,79.1877
1181.1860,78.7003
1182.1503,78.2118
1183.1145,77.7332
1184.0787,77.2693
1185.0430,76.8175
1186.0072,76.3715
1186.9714,75.9264
1187.9357,75.4827
1188.8999,75.0446
1189.8641,74.6169
1190.8284,74.2002
1191.7926,73.7914
1192.7568,73.3854
1193.7211,72.9804
1194.6853,72.5795
1195.6495,72.1899
1196.6138,71.8193
1197.5780,71.4721
1198.5422,71.1478
1199.5065,70.8828
1200.4707,70.5899
1201.4349,70.3139
1202.3992,70.0593
1203.3634,69.8332
1204.3276,69.6421
1205.2919,69.4897
1206.2561,69.3764
1207.2203,69.2998
1208.1846,69.257
1209.1488,69.2457
1210.1130,69.2654
1211.0773,69.3169
1212.0415,69.4011
1213.0057,69.5173
1213.9700,69.6631
1214.9342,69.8353
1215.8984,70.0307
1216.8627,70.2474
1217.8269,70.4839
1218.7911,70.7378
1219.7554,71.0043
1220.7196,71.2769
1221.6838,71.5488
1222.6481,71.8151
1223.6123,72.0727
1224.5765,72.32
1225.5408,72.5543
1226.5050,72.7707
1227.4692,72.9621
1228.4335,73.1219
1229.3977,73.2461
1230.3619,73.336
1231.3262,73.3988
1232.2904,73.4465
1233.2546,73.4926
1234.2189,73.5484
1235.1831,73.6187
1236.1473,73.701
1237.1116,73.7889
1238.0758,73.8783
1239.0400,73.9728
1240.0043,74.0847
1240.9685,74.2284
1241.9327,74.4099
1242.8970,74.6198
1243.8612,74.8336
1244.8254,75.022
1245.7897,75.1639
1246.7539,75.254
1247.7181,75.3017
1248.6824,75.3209
1249.6466,75.3204
1250.6108,75.2983
1251.5751,75.2445
1252.5393,75.1473
1253.5035,75.001
1254.4678,74.8083
1255.4320,74.5796
1256.3962,74.3299
1257.3605,74.076
1258.3247,73.8349
1259.2889,73.6231
1260.2532,73.4547
1261.2174,73.3394
1262.1816,73.2817
1263.1459,73.2798
1264.1101,73.3258
1265.0743,73.4073
1266.0386,73.509
1267.0028,73.6166
1267.9670,73.7204
1268.9313,73.8182
1269.8955,73.9149
1270.8597,74.0197
1271.8240,74.1409
1272.7882,74.2836
1273.7524,74.4487
1274.7167,74.6345
1275.6809,74.8388
1276.6451,75.0605
1277.6094,75.2989
1278.5736,75.5527
1279.5378,75.8186
1280.5021,76.0911
1281.4663,76.3634
1282.4305,76.6291
1283.3948,76.8847
1284.3590,77.1309
1285.3232,77.3718
1286.2875,77.614
1287.2517,77.8635
1288.2159,78.1239
1289.1802,78.3953
1290.1444,78.6747
1291.1086,78.9581
1292.0729,79.2428
1293.0371,79.5285
1294.0013,79.8171
1294.9656,80.111
1295.9298,80.4113
1296.8940,80.7158
1297.8583,81.0182
1298.8225,81.3096
1299.7867,81.5809
1300.7510,81.8254
1301.7152,82.0404
1302.6794,82.2286
1303.6437,82.3965
1304.6079,82.5507
1305.5721,82.695
1306.5364,82.8286
1307.5006,82.9474
1308.4648,83.0473
1309.4291,83.1285
1310.3933,83.1963
1311.3575,83.2595
1312.3218,83.3259
1313.2860,83.3977
1314.2502,83.4713
1315.2145,83.541
1316.1787,83.6041
1317.1429,83.6645
1318.1072,83.7297
1319.0714,83.806
1320.0356,83.8918
1320.9999,83.9783
1321.9641,84.0543
1322.9283,84.1128
1323.8926,84.1535
1324.8568,84.1818
1325.8210,84.2056
1326.7853,84.232
1327.7495,84.2657
1328.7137,84.3095
1329.6780,84.3646
1330.6422,84.4305
1331.6064,84.5027
1332.5707,84.5716
1333.5349,84.6232
1334.4991,84.6447
1335.4634,84.631
1336.4276,84.5919
1337.3918,84.5566
1338.3561,84.567
1339.3203,84.6518
1340.2845,84.7993
1341.2488,84.9622
1342.2130,85.0919
1343.1772,85.1624
1344.1415,85.1709
1345.1057,85.1269
1346.0699,85.0449
1347.0342,84.941
1347.9984,84.8287
1348.9626,84.7166
1349.9269,84.606
1350.8911,84.4945
1351.8553,84.3803
1352.8196,84.2671
1353.7838,84.1641
1354.7480,84.0805
1355.7123,84.0178
1356.6765,83.9668
1357.6407,83.913
1358.6050,83.8469
1359.5692,83.7735
1360.5334,83.7175
1361.4977,83.7183
1362.4619,83.8012
1363.4261,83.9495
1364.3904,84.1169
1365.3546,84.2684
1366.3188,84.3977
1367.2831,84.5144
1368.2473,84.625
1369.2115,84.7247
1370.1758,84.802
1371.1400,84.8496
1372.1042,84.8749
1373.0685,84.9021
1374.0327,84.9613
1374.9969,85.0666
1375.9612,85.2065
1376.9254,85.361
1377.8896,85.5246
1378.8539,85.7068
1379.8181,85.9162
1380.7823,86.1469
1381.7466,86.3801
1382.7108,86.5993
1383.6750,86.805
1384.6393,87.0168
1385.6035,87.2608
1386.5677,87.5445
1387.5320,87.8287
1388.4962,88.0384
1389.4604,88.1203
1390.4247,88.076
1391.3889,87.9445
1392.3531,87.7735
1393.3174,87.6103
1394.2816,87.5011
1395.2458,87.4751
1396.2101,87.5209
1397.1743,87.5872
1398.1385,87.6151
1399.1028,87.5693
1400.0670,87.4452
1401.0313,87.2591
1401.9955,87.0361
1402.9597,86.8023
1403.9240,86.5823
1404.8882,86.3951
1405.8524,86.246
1406.8167,86.1236
1407.7809,86.0115
1408.7451,85.9017
1409.7094,85.7951
1410.6736,85.6927
1411.6378,85.5889
1412.6021,85.4737
1413.5663,85.3417
1414.5305,85.1949
1415.4948,85.0357
1416.4590,84.8625
1417.4232,84.6795
1418.3875,84.5005
1419.3517,84.3222
1420.3159,84.1109
1421.2802,83.8443
1422.2444,83.5374
1423.2086,83.2234
1424.1729,82.9291
1425.1371,82.6655
1426.1013,82.4292
1427.0656,82.2082
1428.0298,81.9909
1428.9940,81.774
1429.9583,81.5658
1430.9225,81.3798
1431.8867,81.2254
1432.8510,81.1013
1433.8152,80.9915
1434.7794,80.8672
1435.7437,80.7039
1436.7079,80.4968
1437.6721,80.2465
1438.6364,79.9502
1439.6006,79.6194
1440.5648,79.2804
1441.5291,78.9555
1442.4933,78.6522
1443.4575,78.3667
1444.4218,78.091
1445.3860,77.8185
1446.3502,77.5469
1447.3145,77.2768
1448.2787,77.0079
1449.2429,76.7366
1450.2072,76.4638
1451.1714,76.2044
1452.1356,75.9824
1453.0999,75.8104
1454.0641,75.6694
1455.0283,75.518
1455.9926,75.3659
1456.9568,75.3328
1457.9210,75.4485
1458.8853,75.5298
1459.8495,75.4825
1460.8137,75.3874
1461.7780,75.3641
1462.7422,75.5139
1463.7064,75.9167
1464.6707,76.5884
1465.6349,77.4162
1466.5991,78.2198
1467.5634,78.9096
1468.5276,79.5215
1469.4918,80.1397
1470.4561,80.8386
1471.4203,81.6742
1472.3845,82.6598
1473.3488,83.6835
1474.3130,84.5187
1475.2772,85.0231
1476.2415,85.2264
1477.2057,85.2313
1478.1699,85.1337
1479.1342,85.0125
1480.0984,84.9376
1481.0626,84.9639
1482.0269,85.1104
1482.9911,85.3516
1483.9553,85.6331
1484.9196,85.8981
1485.8838,86.1023
1486.8480,86.2241
1487.8123,86.2865
1488.7765,86.362
1489.7407,86.4888
1490.7050,86.5997
1491.6692,86.6156
1492.6334,86.5303
1493.5977,86.3705
1494.5619,86.139
1495.5261,85.8061
1496.4904,85.3497
1497.4546,84.7987
1498.4188,84.2147
1499.3831,83.6418
1500.3473,83.1158
1501.3115,82.6852
1502.2758,82.3889
1503.2400,82.2192
1504.2042,82.0913
1505.1685,81.8543
1506.1327,81.4428
1507.0969,81.0942
1508.0612,81.0157
1509.0254,81.0036
1509.9896,80.8884
1510.9539,80.6981
1511.9181,80.5059
1512.8823,80.3728
1513.8466,80.3639
1514.8108,80.5559
1515.7750,81.0049
1516.7393,81.7046
1517.7035,82.6041
1518.6677,83.684
1519.6320,84.9891
1520.5962,86.5417
1521.5604,88.2097
1522.5247,89.7424
1523.4889,90.9897
1524.4531,92.0096
1525.4174,92.9497
1526.3816,93.8816
1527.3458,94.756
1528.3101,95.4878
1529.2743,96.0511
1530.2385,96.494
1531.2028,96.9004
1532.1670,97.3428
1533.1312,97.8325
1534.0955,98.3023
1535.0597,98.6816
1536.0239,98.9713
1536.9882,99.2007
1537.9524,99.3359
1538.9166,99.2708
1539.8809,99.0154
1540.8451,98.9011
1541.8093,99.1557
1542.7736,99.5473
1543.7378,99.8589
1544.7020,100.059
1545.6663,100.165
1546.6305,100.185
1547.5947,100.139
1548.5590,100.078
1549.5232,100.002
1550.4874,99.9166
1551.4517,99.811
1552.4159,99.6829
1553.3801,99.558
1554.3444,99.4783
1555.3086,99.4588
1556.2728,99.4517
1557.2371,99.3958
1558.2013,99.3738
1559.1655,99.4531
1560.1298,99.345
1561.0940,98.8964
1562.0582,98.2859
1563.0225,97.7111
1563.9867,97.2605
1564.9509,96.9334
1565.9152,96.6774
1566.8794,96.4182
1567.8436,96.0956
1568.8079,95.6996
1569.7721,95.2707
1570.7363,94.8583
1571.7006,94.4905
1572.6648,94.1627
1573.6290,93.8219
1574.5933,93.3801
1575.5575,92.7945
1576.5217,92.1458
1577.4860,91.5497
1578.4502,91.0229
1579.4144,90.5248
1580.3787,90.0264
1581.3429,89.5102
1582.3071,88.9637
1583.2714,88.3869
1584.2356,87.7929
1585.1998,87.1929
1586.1641,86.5885
1587.1283,85.9764
1588.0925,85.359
1589.0568,84.7469
1590.0210,84.153
1590.9852,83.5853
1591.9495,83.0489
1592.9137,82.5531
1593.8779,82.1149
1594.8422,81.7512
1595.8064,81.4667
1596.7706,81.2488
1597.7349,81.076
1598.6991,80.9298
1599.6633,80.8022
1600.6276,80.6958
1601.5918,80.6186
1602.5560,80.5756
1603.5203,80.5632
1604.4845,80.572
1605.4487,80.5956
1606.4130,80.6394
1607.3772,80.721
1608.3414,80.8575
1609.3057,81.0458
1610.2699,81.2581
1611.2341,81.4674
1612.1984,81.6742
1613.1626,81.9074
1614.1268,82.214
1615.0911,82.6503
1616.0553,83.2381
1617.0195,83.8771
1617.9838,84.3892
1618.9480,84.7116
1619.9122,84.9362
1620.8765,85.1926
1621.8407,85.5617
1622.8049,86.0475
1623.7692,86.5832
1624.7334,87.083
1625.6976,87.5157
1626.6619,87.9157
1627.6261,88.3232
1628.5903,88.7345
1629.5546,89.1152
1630.5188,89.4494
1631.4830,89.7565
1632.4473,90.0595
1633.4115,90.3527
1634.3757,90.6225
1635.3400,90.9069
1636.3042,91.2382
1637.2684,91.5249
1638.2327,91.6782
1639.1969,91.7331
1640.1611,91.7714
1641.1254,91.8468
1642.0896,91.9695
1643.0538,92.1077
1644.0181,92.1895
1644.9823,92.1417
1645.9465,91.9829
1646.9108,91.8475
1647.8750,91.8397
1648.8392,91.9713
1649.8035,92.2278
1650.7677,92.5544
1651.7319,92.8227
1652.6962,92.9277
1653.6604,92.8874
1654.6246,92.6628
1655.5889,92.2273
1656.5531,91.7294
1657.5173,91.3257
1658.4816,91.0677
1659.4458,90.914
1660.4100,90.7825
1661.3743,90.6135
1662.3385,90.4063
1663.3027,90.1904
1664.2670,89.9859
1665.2312,89.7984
1666.1954,89.6143
1667.1597,89.3938
1668.1239,89.0985
1669.0881,88.7513
1670.0524,88.4413
1671.0166,88.2326
1671.9808,88.1131
1672.9451,88.0394
1673.9093,87.9631
1674.8735,87.8272
1675.8378,87.5809
1676.8020,87.216
1677.7662,86.7888
1678.7305,86.3937
1679.6947,86.1058
1680.6589,85.9349
1681.6232,85.8137
1682.5874,85.6454
1683.5516,85.4012
1684.5159,85.1138
1685.4801,84.7611
1686.4443,84.3209
1687.4086,83.8438
1688.3728,83.4003
1689.3370,83.0352
1690.3013,82.7613
1691.2655,82.5646
1692.2297,82.4053
1693.1940,82.2205
1694.1582,81.9433
1695.1224,81.5437
1696.0867,81.0791
1697.0509,80.6931
1698.0151,80.5147
1698.9794,80.5182
1699.9436,80.5219
1700.9078,80.3615
1701.8721,80.0289
1702.8363,79.6387
1703.8005,79.3233
1704.7648,79.1651
1705.7290,79.1757
1706.6932,79.3011
1707.6575,79.46
1708.6217,79.598
1709.5859,79.7131
1710.5502,79.8327
1711.5144,79.9797
1712.4786,80.1564
1713.4429,80.3541
1714.4071,80.5873
1715.3713,80.9427
1716.3356,81.5554
1717.2998,82.3984
1718.2640,83.1777
1719.2283,83.6626
1720.1925,83.8994
1721.1567,84.0602
1722.1210,84.2779
1723.0852,84.5979
1724.0494,84.9925
1725.0137,85.3988
1725.9779,85.7615
1726.9421,86.062
1727.9064,86.3191
1728.8706,86.5714
1729.8348,86.8581
1730.7991,87.2123
1731.7633,87.6662
1732.7275,88.2397
1733.6918,88.8673
1734.6560,89.3716
1735.6202,89.6361
1736.5845,89.7285
1737.5487,89.8005
1738.5129,89.9588
1739.4772,90.2236
1740.4414,90.5444
1741.4056,90.8448
1742.3699,91.0766
1743.3341,91.245
1744.2983,91.3899
1745.2626,91.5493
1746.2268,91.7451
1747.1910,91.9963
1748.1553,92.3356
1749.1195,92.7879
1750.0837,93.3053
1751.0480,93.7618
1752.0122,94.0604
1752.9764,94.2082
1753.9407,94.279
1754.9049,94.3445
1755.8691,94.4412
1756.8334,94.5707
1757.7976,94.7184
1758.7618,94.8733
1759.7261,95.0374
1760.6903,95.2177
1761.6545,95.4105
1762.6188,95.595
1763.5830,95.7498
1764.5472,95.8732
1765.5115,95.9817
1766.4757,96.0908
1767.4399,96.1997
1768.4042,96.2934
1769.3684,96.3614
1770.3326,96.4239
1771.2969,96.5358
1772.2611,96.7346
1773.2253,96.9766
1774.1896,97.1768
1775.1538,97.3041
1776.1180,97.3957
1777.0823,97.5042
1778.0465,97.6563
1779.0107,97.8467
1779.9750,98.0548
1780.9392,98.2612
1781.9034,98.4571
1782.8677,98.6393
1783.8319,98.7997
1784.7961,98.9231
1785.7604,98.9999
1786.7246,99.0399
1787.6888,99.0692
1788.6531,99.1089
1789.6173,99.1574
1790.5815,99.1981
1791.5458,99.2264
1792.5100,99.2503
1793.4742,99.26
1794.4385,99.2401
1795.4027,99.2064
1796.3669,99.1949
1797.3312,99.2261
1798.2954,99.2942
1799.2596,99.3793
1800.2239,99.4642
1801.1881,99.538
1802.1523,99.5926
1803.1166,99.6242
1804.0808,99.6357
1805.0450,99.6337
1806.0093,99.6227
1806.9735,99.6038
1807.9377,99.5789
1808.9020,99.5563
1809.8662,99.5507
1810.8304,99.5728
1811.7947,99.6184
1812.7589,99.6723
1813.7231,99.7215
1814.6874,99.7607
1815.6516,99.788
1816.6158,99.8016
1817.5801,99.8003
1818.5443,99.786
1819.5085,99.7656
1820.4728,99.7487
1821.4370,99.742
1822.4012,99.7445
1823.3655,99.7484
1824.3297,99.7426
1825.2939,99.7179
1826.2582,99.6727
1827.2224,99.6175
1828.1866,99.574
1829.1509,99.5654
1830.1151,99.5941
1831.0793,99.6307
1832.0436,99.6393
1833.0078,99.6119
1833.9720,99.5669
1834.9363,99.5242
1835.9005,99.4915
1836.8647,99.4667
1837.8290,99.4481
1838.7932,99.4411
1839.7574,99.4562
1840.7217,99.4952
1841.6859,99.5397
1842.6501,99.5716
1843.6144,99.583
1844.5786,99.565
1845.5428,99.5312
1846.5071,99.4912
1847.4713,99.4615
1848.4355,99.4597
1849.3998,99.4891
1850.3640,99.5356
1851.3282,99.5784
1852.2925,99.604
1853.2567,99.6109
1854.2209,99.6057
1855.1852,99.5948
1856.1494,99.5824
1857.1136,99.5704
1858.0779,99.5622
1859.0421,99.5616
1860.0063,99.5685
1860.9706,99.5758
1861.9348,99.5721
1862.8990,99.5496
1863.8633,99.5081
1864.8275,99.4527
1865.7917,99.3918
1866.7560,99.3443
1867.7202,99.344
1868.6844,99.4135
1869.6487,99.5257
1870.6129,99.622
1871.5771,99.671
1872.5414,99.6829
1873.5056,99.6828
1874.4698,99.6856
1875.4341,99.6929
1876.3983,99.7005
1877.3625,99.7057
1878.3268,99.7088
1879.2910,99.7116
1880.2552,99.7142
1881.2195,99.7146
1882.1837,99.7103
1883.1479,99.7006
1884.1122,99.6884
1885.0764,99.6787
1886.0406,99.6755
1887.0049,99.6799
1887.9691,99.6903
1888.9333,99.7033
1889.8976,99.7125
1890.8618,99.7103
1891.8260,99.6947
1892.7903,99.6722
1893.7545,99.6548
1894.7188,99.6524
1895.6830,99.6679
1896.6472,99.6951
1897.6115,99.7225
1898.5757,99.7401
1899.5399,99.7448
1900.5042,99.7397
1901.4684,99.7302
1902.4326,99.7193
1903.3969,99.7059
1904.3611,99.6857
1905.3253,99.6556
1906.2896,99.6177
1907.2538,99.5807
1908.2180,99.5576
1909.1823,99.558
1910.1465,99.5803
1911.1107,99.6126
1912.0750,99.6426
1913.0392,99.6674
1914.0034,99.6911
1914.9677,99.7164
1915.9319,99.7393
1916.8961,99.75
1917.8604,99.7375
1918.8246,99.696
1919.7888,99.632
1920.7531,99.5655
1921.7173,99.5212
1922.6815,99.5154
1923.6458,99.5466
1924.6100,99.5965
1925.5742,99.6429
1926.5385,99.6729
1927.5027,99.6862
1928.4669,99.6891
1929.4312,99.6881
1930.3954,99.6877
1931.3596,99.6893
1932.3239,99.6935
1933.2881,99.7001
1934.2523,99.7084
1935.2166,99.7156
1936.1808,99.7184
1937.1450,99.7146
1938.1093,99.704
1939.0735,99.6879
1940.0377,99.6677
1941.0020,99.6467
1941.9662,99.6313
1942.9304,99.6276
1943.8947,99.6359
1944.8589,99.6529
1945.8231,99.6762
1946.7874,99.7056
1947.7516,99.7391
1948.7158,99.7712
1949.6801,99.7948
1950.6443,99.8055
1951.6085,99.8045
1952.5728,99.798
1953.5370,99.7937
1954.5012,99.7969
1955.4655,99.8079
1956.4297,99.8233
1957.3939,99.8389
1958.3582,99.8524
1959.3224,99.8631
1960.2866,99.8706
1961.2509,99.8733
1962.2151,99.8686
1963.1793,99.8554
1964.1436,99.8363
1965.1078,99.8187
1966.0720,99.8132
1967.0363,99.8272
1968.0005,99.8595
1968.9647,99.8998
1969.9290,99.9361
1970.8932,99.9616
1971.8574,99.9764
1972.8217,99.9843
1973.7859,99.9897
1974.7501,99.9956
1975.7144,100.002
1976.6786,100.007
1977.6428,100.009
1978.6071,100.008
1979.5713,100.007
1980.5355,100.007
1981.4998,100.009
1982.4640,100.013
1983.4282,100.015
1984.3925,100.013
1985.3567,100.007
1986.3209,99.9958
1987.2852,99.9818
1988.2494,99.9675
1989.2136,99.9557
1990.1779,99.9498
1991.1421,99.9526
1992.1063,99.965
1993.0706,99.9835
1994.0348,100.002
1994.9990,100.016
1995.9633,100.022
1996.9275,100.023
1997.8917,100.02
1998.8560,100.017
1999.8202,100.015
2000.7844,100.018
2001.7487,100.022
2002.7129,100.026
2003.6771,100.027
2004.6414,100.022
2005.6056,100.014
2006.5698,100.006
2007.5341,100
2008.4983,99.9995
2009.4625,100.004
2010.4268,100.009
2011.3910,100.011
2012.3552,100.005
2013.3195,99.9891
2014.2837,99.9655
2015.2479,99.9403
2016.2122,99.9216
2017.1764,99.9157
2018.1406,99.9237
2019.1049,99.9411
2020.0691,99.961
2021.0333,99.9776
2021.9976,99.9885
2022.9618,99.9936
2023.9260,99.9945
2024.8903,99.9931
2025.8545,99.9911
2026.8187,99.9896
2027.7830,99.9893
2028.7472,99.99
2029.7114,99.9907
2030.6757,99.9906
2031.6399,99.9889
2032.6041,99.9862
2033.5684,99.9839
2034.5326,99.983
2035.4968,99.9826
2036.4611,99.981
2037.4253,99.9761
2038.3895,99.967
2039.3538,99.9557
2040.3180,99.9461
2041.2822,99.942
2042.2465,99.945
2043.2107,99.9534
2044.1749,99.9634
2045.1392,99.9714
2046.1034,99.9753
2047.0676,99.9749
2048.0320,99.9713
2048.9961,99.9664
2049.9604,99.9617
2050.9246,99.9582
2051.8889,99.9565
2052.8530,99.9562
2053.8174,99.9562
2054.7815,99.956
2055.7458,99.9556
2056.7100,99.9553
2057.6743,99.9554
2058.6384,99.9551
2059.6028,99.9526
2060.5669,99.9461
2061.5313,99.9354
2062.4954,99.9234
2063.4597,99.9149
2064.4238,99.9149
2065.3882,99.9251
2066.3523,99.9432
2067.3167,99.9636
2068.2808,99.981
2069.2451,99.9926
2070.2092,99.9988
2071.1736,100.002
2072.1377,100.004
2073.1021,100.007
2074.0662,100.011
2075.0305,100.015
2075.9946,100.02
2076.9590,100.024
2077.9231,100.029
2078.8875,100.034
2079.8516,100.039
2080.8159,100.043
2081.7800,100.047
2082.7444,100.051
2083.7085,100.055
2084.6729,100.059
2085.6370,100.062
2086.6013,100.064
2087.5654,100.066
2088.5298,100.068
2089.4939,100.069
2090.4583,100.071
2091.4224,100.072
2092.3867,100.074
2093.3508,100.077
2094.3152,100.081
2095.2793,100.087
2096.2437,100.095
2097.2078,100.103
2098.1721,100.109
2099.1362,100.114
2100.1006,100.115
2101.0647,100.117
2102.0291,100.119
2102.9932,100.122
2103.9575,100.124
2104.9216,100.125
2105.8860,100.126
2106.8501,100.125
2107.8145,100.123
2108.7786,100.12
2109.7429,100.117
2110.7070,100.115
2111.6714,100.112
2112.6355,100.111
2113.5999,100.111
2114.5640,100.115
2115.5283,100.122
2116.4924,100.13
2117.4568,100.136
2118.4209,100.14
2119.3853,100.141
2120.3494,100.139
2121.3137,100.136
2122.2778,100.133
2123.2422,100.131
2124.2063,100.129
2125.1707,100.128
2126.1348,100.128
2127.0991,100.13
2128.0632,100.135
2129.0276,100.143
2129.9917,100.152
2130.9561,100.159
2131.9202,100.161
2132.8845,100.157
2133.8486,100.149
2134.8130,100.142
2135.7771,100.138
2136.7415,100.143
2137.7056,100.154
2138.6699,100.17
2139.6340,100.185
2140.5984,100.195
2141.5625,100.201
2142.5269,100.204
2143.4910,100.207
2144.4553,100.213
2145.4194,100.221
2146.3838,100.231
2147.3479,100.24
2148.3123,100.247
2149.2764,100.251
2150.2407,100.251
2151.2048,100.25
2152.1692,100.248
2153.1333,100.247
2154.0977,100.248
2155.0618,100.252
2156.0261,100.259
2156.9902,100.266
2157.9546,100.275
2158.9187,100.282
2159.8831,100.289
2160.8472,100.295
2161.8115,100.301
2162.7756,100.307
2163.7400,100.312
2164.7041,100.314
2165.6685,100.313
2166.6326,100.31
2167.5969,100.306
2168.5610,100.303
2169.5254,100.302
2170.4895,100.304
2171.4539,100.307
2172.4180,100.311
2173.3823,100.315
2174.3464,100.318
2175.3108,100.32
2176.2749,100.321
2177.2393,100.321
2178.2034,100.322
2179.1677,100.321
2180.1318,100.318
2181.0962,100.314
2182.0603,100.309
2183.0247,100.302
2183.9888,100.297
2184.9531,100.295
2185.9172,100.297
2186.8816,100.302
2187.8457,100.31
2188.8101,100.319
2189.7742,100.326
2190.7385,100.33
2191.7026,100.331
2192.6670,100.33
2193.6311,100.329
2194.5955,100.329
2195.5596,100.332
2196.5239,100.336
2197.4880,100.34
2198.4524,100.342
2199.4165,100.341
2200.3809,100.339
2201.3450,100.336
2202.3093,100.336
2203.2734,100.338
2204.2378,100.341
2205.2019,100.342
2206.1663,100.341
2207.1304,100.338
2208.0947,100.337
2209.0588,100.338
2210.0232,100.341
2210.9873,100.345
2211.9517,100.346
2212.9158,100.343
2213.8801,100.339
2214.8442,100.334
2215.8086,100.331
2216.7727,100.331
2217.7371,100.332
2218.7012,100.334
2219.6655,100.334
2220.6296,100.333
2221.5940,100.333
2222.5581,100.333
2223.5225,100.336
2224.4866,100.338
2225.4509,100.34
2226.4150,100.338
2227.3794,100.332
2228.3435,100.323
2229.3079,100.31
2230.2720,100.296
2231.2363,100.281
2232.2004,100.268
2233.1648,100.26
2234.1289,100.257
2235.0933,100.257
2236.0574,100.258
2237.0217,100.257
2237.9858,100.254
2238.9502,100.248
2239.9143,100.24
2240.8787,100.233
2241.8428,100.226
2242.8071,100.218
2243.7712,100.207
2244.7356,100.194
2245.6997,100.178
2246.6641,100.163
2247.6282,100.149
2248.5925,100.136
2249.5566,100.124
2250.5210,100.11
2251.4851,100.094
2252.4495,100.075
2253.4136,100.055
2254.3779,100.036
2255.3420,100.019
2256.3064,100.003
2257.2705,99.9871
2258.2349,99.9691
2259.1990,99.9496
2260.1633,99.9295
2261.1274,99.9107
2262.0918,99.8951
2263.0559,99.8838
2264.0203,99.8771
2264.9844,99.8742
2265.9487,99.873
2266.9128,99.8704
2267.8772,99.8633
2268.8413,99.8502
2269.8057,99.8318
2270.7698,99.8114
2271.7341,99.7938
2272.6982,99.7828
2273.6626,99.7802
2274.6267,99.7853
2275.5911,99.7959
2276.5552,99.81
2277.5195,99.8265
2278.4836,99.845
2279.4480,99.8645
2280.4121,99.8826
2281.3765,99.8954
2282.3406,99.8983
2283.3049,99.8874
2284.2690,99.8605
2285.2334,99.8187
2286.1975,99.7655
2287.1619,99.7063
2288.1260,99.6458
2289.0903,99.5866
2290.0544,99.5285
2291.0188,99.4709
2291.9829,99.4149
2292.9473,99.3646
2293.9114,99.3252
2294.8757,99.3006
2295.8398,99.291
2296.8042,99.2933
2297.7683,99.3044
2298.7327,99.325
2299.6968,99.3596
2300.6611,99.4136
2301.6252,99.4872
2302.5896,99.5721
2303.5537,99.6521
2304.5181,99.7095
2305.4822,99.7348
2306.4465,99.733
2307.4106,99.7244
2308.3750,99.7369
2309.3391,99.793
2310.3035,99.8978
2311.2676,100.036
2312.2319,100.181
2313.1960,100.307
2314.1604,100.406
2315.1245,100.488
2316.0889,100.572
2317.0530,100.679
2318.0173,100.812
2318.9814,100.951
2319.9458,101.054
2320.9099,101.071
2321.8743,100.959
2322.8384,100.714
2323.8027,100.38
2324.7668,100.037
2325.7312,99.7736
2326.6953,99.65
2327.6597,99.6748
2328.6238,99.7979
2329.5881,99.9282
2330.5522,99.9719
2331.5166,99.8772
2332.4807,99.6587
2333.4451,99.3835
2334.4092,99.1308
2335.3735,98.9525
2336.3376,98.853
2337.3020,98.7941
2338.2661,98.7191
2339.2305,98.5868
2340.1946,98.4078
2341.1589,98.2683
2342.1230,98.317
2343.0874,98.6538
2344.0515,99.1539
2345.0159,99.4903
2345.9800,99.4492
2346.9443,99.1209
2347.9084,98.7652
2348.8728,98.6104
2349.8369,98.7225
2350.8013,99.0058
2351.7654,99.2628
2352.7297,99.3071
2353.6938,99.0985
2354.6582,98.7574
2355.6223,98.4126
2356.5867,98.0888
2357.5508,97.7702
2358.5151,97.4983
2359.4792,97.3519
2360.4436,97.3577
2361.4077,97.4691
2362.3721,97.6367
2363.3362,97.864
2364.3005,98.1866
2365.2646,98.6176
2366.2290,99.1249
2367.1931,99.6526
2368.1575,100.152
2369.1216,100.592
2370.0859,100.96
2371.0500,101.251
2372.0144,101.464
2372.9785,101.598
2373.9429,101.648
2374.9070,101.607
2375.8713,101.476
2376.8354,101.264
2377.7998,100.995
2378.7639,100.7
2379.7283,100.414
2380.6924,100.166
2381.6567,99.9751
2382.6208,99.8489
2383.5852,99.7833
2384.5493,99.7665
2385.5137,99.7822
2386.4778,99.8135
2387.4421,99.8465
2388.4063,99.8723
2389.3706,99.8875
2390.3347,99.8936
2391.2991,99.8951
2392.2632,99.8965
2393.2275,99.9003
2394.1917,99.9065
2395.1560,99.9135
2396.1201,99.9199
2397.0845,99.925
2398.0486,99.9283
2399.0129,99.9297
2399.9771,99.9283
2400.9414,99.9229
2401.9055,99.9137
2402.8699,99.9034
2403.8340,99.8958
2404.7983,99.8946
2405.7625,99.9001
2406.7268,99.9096
2407.6909,99.9184
2408.6553,99.9234
2409.6194,99.9241
2410.5837,99.9232
2411.5479,99.924
2412.5122,99.9285
2413.4763,99.9356
2414.4407,99.943
2415.4048,99.9483
2416.3691,99.9514
2417.3333,99.9538
2418.2976,99.9577
2419.2617,99.9637
2420.2261,99.9702
2421.1902,99.9749
2422.1545,99.9759
2423.1187,99.9734
2424.0830,99.9696
2425.0471,99.9669
2426.0115,99.9671
2426.9756,99.9699
2427.9399,99.9737
2428.9041,99.9773
2429.8684,99.9803
2430.8325,99.9832
2431.7969,99.9865
2432.7610,99.9895
2433.7253,99.9908
2434.6895,99.9892
2435.6538,99.9851
2436.6179,99.9805
2437.5823,99.9784
2438.5464,99.981
2439.5107,99.9888
2440.4749,100
2441.4392,100.012
2442.4033,100.021
2443.3677,100.027
2444.3318,100.028
2445.2961,100.026
2446.2603,100.022
2447.2246,100.018
2448.1887,100.014
2449.1531,100.009
2450.1172,100.004
2451.0815,99.9978
2452.0457,99.9923
2453.0100,99.9891
2453.9741,99.9891
2454.9385,99.9918
2455.9026,99.9955
2456.8669,99.9977
2457.8311,99.997
2458.7954,99.9937
2459.7595,99.9893
2460.7239,99.9861
2461.6880,99.9851
2462.6523,99.9862
2463.6165,99.9881
2464.5808,99.9895
2465.5449,99.9898
2466.5093,99.989
2467.4734,99.9873
2468.4377,99.985
2469.4019,99.9818
2470.3662,99.9774
2471.3303,99.9718
2472.2947,99.9658
2473.2588,99.9606
2474.2231,99.9576
2475.1873,99.9574
2476.1516,99.9591
2477.1157,99.9608
2478.0801,99.9605
2479.0442,99.9572
2480.0085,99.9517
2480.9727,99.9459
2481.9370,99.9422
2482.9011,99.9414
2483.8655,99.9432
2484.8296,99.9462
2485.7939,99.9488
2486.7581,99.9505
2487.7224,99.9514
2488.6865,99.9519
2489.6509,99.9523
2490.6150,99.9522
2491.5793,99.9509
2492.5435,99.9483
2493.5078,99.9449
2494.4719,99.9419
2495.4363,99.9407
2496.4004,99.9418
2497.3647,99.9447
2498.3289,99.9475
2499.2932,99.9478
2500.2573,99.9443
2501.2217,99.9375
2502.1858,99.9298
2503.1501,99.9244
2504.1143,99.9234
2505.0786,99.9267
2506.0427,99.9322
2507.0071,99.9368
2507.9712,99.9382
2508.9355,99.9355
2509.8997,99.9292
2510.8640,99.9199
2511.8281,99.909
2512.7925,99.898
2513.7566,99.8892
2514.7209,99.8851
2515.6851,99.887
2516.6494,99.8936
2517.6135,99.9013
2518.5779,99.9056
2519.5420,99.9035
2520.5063,99.8953
2521.4705,99.8843
2522.4348,99.8747
2523.3989,99.8692
2524.3633,99.8679
2525.3274,99.8691
2526.2917,99.8705
2527.2559,99.8709
2528.2202,99.8707
2529.1843,99.8706
2530.1487,99.871
2531.1128,99.8713
2532.0771,99.8697
2533.0413,99.8651
2534.0056,99.857
2534.9697,99.8468
2535.9341,99.8369
2536.8982,99.83
2537.8625,99.8281
2538.8267,99.8315
2539.7910,99.8388
2540.7551,99.8473
2541.7195,99.8546
2542.6836,99.8586
2543.6479,99.8591
2544.6121,99.857
2545.5764,99.8536
2546.5405,99.8501
2547.5049,99.8472
2548.4690,99.8448
2549.4333,99.8432
2550.3975,99.8426
2551.3618,99.8439
2552.3259,99.8475
2553.2903,99.853
2554.2544,99.8594
2555.2188,99.8657
2556.1829,99.8716
2557.1472,99.8777
2558.1113,99.8849
2559.0757,99.8927
2560.0398,99.899
2561.0042,99.901
2561.9683,99.8964
2562.9326,99.8857
2563.8967,99.8724
2564.8611,99.8613
2565.8252,99.8565
2566.7896,99.8595
2567.7537,99.8685
2568.7180,99.8795
2569.6821,99.8888
2570.6465,99.8938
2571.6106,99.8939
2572.5750,99.89
2573.5391,99.8838
2574.5034,99.8771
2575.4675,99.8714
2576.4319,99.8675
2577.3960,99.866
2578.3604,99.867
2579.3245,99.8703
2580.2888,99.8755
2581.2529,99.8817
2582.2173,99.8881
2583.1814,99.8938
2584.1458,99.8983
2585.1099,99.9013
2586.0742,99.9029
2587.0383,99.903
2588.0027,99.9015
2588.9668,99.8985
2589.9312,99.894
2590.8953,99.8888
2591.8596,99.8844
2592.8237,99.8815
2593.7881,99.8806
2594.7522,99.8812
2595.7166,99.8828
2596.6807,99.8854
2597.6450,99.8896
2598.6091,99.896
2599.5735,99.9038
2600.5376,99.9108
2601.5020,99.9137
2602.4661,99.9104
2603.4304,99.9014
2604.3945,99.8907
2605.3589,99.884
2606.3230,99.8855
2607.2874,99.8958
2608.2515,99.9111
2609.2158,99.9255
2610.1799,99.9338
2611.1443,99.9342
2612.1084,99.9289
2613.0728,99.9224
2614.0369,99.9188
2615.0012,99.9196
2615.9653,99.9239
2616.9297,99.9291
2617.8938,99.9329
2618.8582,99.934
2619.8223,99.933
2620.7866,99.9315
2621.7507,99.931
2622.7151,99.9327
2623.6792,99.9363
2624.6436,99.9406
2625.6077,99.9438
2626.5720,99.945
2627.5361,99.9441
2628.5005,99.9426
2629.4646,99.9425
2630.4290,99.9456
2631.3931,99.9522
2632.3574,99.9618
2633.3215,99.9728
2634.2859,99.9837
2635.2500,99.993
2636.2144,99.9995
2637.1785,100.002
2638.1428,100.002
2639.1069,99.9994
2640.0713,99.9973
2641.0354,99.9975
2641.9998,100.001
2642.9639,100.007
2643.9282,100.012
2644.8923,100.016
2645.8567,100.015
2646.8208,100.011
2647.7852,100.004
2648.7493,99.9981
2649.7136,99.9942
2650.6777,99.9947
2651.6421,100.001
2652.6062,100.012
2653.5706,100.027
2654.5347,100.041
2655.4990,100.053
2656.4631,100.06
2657.4275,100.063
2658.3916,100.065
2659.3560,100.069
2660.3201,100.075
2661.2844,100.082
2662.2485,100.089
2663.2129,100.094
2664.1770,100.098
2665.1414,100.104
2666.1055,100.112
2667.0698,100.123
2668.0339,100.136
2668.9983,100.148
2669.9624,100.16
2670.9268,100.17
2671.8909,100.18
2672.8552,100.189
2673.8193,100.196
2674.7837,100.201
2675.7478,100.203
2676.7122,100.201
2677.6763,100.196
2678.6406,100.19
2679.6047,100.184
2680.5691,100.18
2681.5332,100.179
2682.4976,100.181
2683.4617,100.184
2684.4260,100.186
2685.3901,100.185
2686.3545,100.18
2687.3186,100.175
2688.2830,100.172
2689.2471,100.174
2690.2114,100.181
2691.1755,100.19
2692.1399,100.197
2693.1040,100.202
2694.0684,100.205
2695.0325,100.208
2695.9968,100.213
2696.9609,100.222
2697.9253,100.231
2698.8894,100.239
2699.8538,100.245
2700.8179,100.247
2701.7822,100.247
2702.7463,100.244
2703.7107,100.241
2704.6748,100.237
2705.6392,100.232
2706.6033,100.224
2707.5676,100.214
2708.5317,100.202
2709.4961,100.19
2710.4602,100.181
2711.4246,100.176
2712.3887,100.176
2713.3530,100.178
2714.3171,100.178
2715.2815,100.174
2716.2456,100.165
2717.2100,100.153
2718.1741,100.143
2719.1384,100.138
2720.1025,100.14
2721.0669,100.146
2722.0310,100.153
2722.9954,100.156
2723.9595,100.151
2724.9238,100.139
2725.8879,100.125
2726.8523,100.113
2727.8164,100.108
2728.7808,100.11
2729.7449,100.118
2730.7092,100.127
2731.6733,100.134
2732.6377,100.138
2733.6018,100.14
2734.5662,100.139
2735.5303,100.136
2736.4946,100.129
2737.4587,100.118
2738.4231,100.108
2739.3872,100.101
2740.3516,100.101
2741.3157,100.11
2742.2800,100.128
2743.2441,100.15
2744.2085,100.173
2745.1726,100.193
2746.1370,100.209
2747.1011,100.219
2748.0654,100.225
2749.0295,100.226
2749.9939,100.223
2750.9580,100.218
2751.9224,100.214
2752.8865,100.212
2753.8508,100.213
2754.8149,100.213
2755.7793,100.211
2756.7434,100.204
2757.7078,100.193
2758.6719,100.179
2759.6362,100.165
2760.6003,100.153
2761.5647,100.145
2762.5288,100.14
2763.4932,100.137
2764.4573,100.134
2765.4216,100.13
2766.3857,100.125
2767.3501,100.12
2768.3142,100.115
2769.2786,100.11
2770.2427,100.104
2771.2070,100.095
2772.1711,100.079
2773.1355,100.057
2774.0996,100.03
2775.0640,100.001
2776.0281,99.9742
2776.9924,99.9501
2777.9565,99.9272
2778.9209,99.9019
2779.8850,99.8715
2780.8494,99.8348
2781.8135,99.7954
2782.7778,99.7592
2783.7419,99.7303
2784.7063,99.7091
2785.6704,99.6916
2786.6348,99.6722
2787.5989,99.6464
2788.5632,99.6129
2789.5273,99.5738
2790.4917,99.5326
2791.4558,99.4924
2792.4202,99.4545
2793.3843,99.4184
2794.3486,99.3824
2795.3127,99.3442
2796.2771,99.302
2797.2412,99.2551
2798.2056,99.2044
2799.1697,99.1519
2800.1340,99.0999
2801.0981,99.0502
2802.0625,99.0026
2803.0266,98.9551
2803.9910,98.9048
2804.9551,98.8494
2805.9194,98.7877
2806.8835,98.72
2807.8479,98.6467
2808.8120,98.5683
2809.7764,98.4845
2810.7405,98.3955
2811.7048,98.3023
2812.6689,98.2063
2813.6333,98.1089
2814.5974,98.0097
2815.5618,97.9066
2816.5259,97.7961
2817.4902,97.6749
2818.4543,97.541
2819.4187,97.3937
2820.3828,97.2335
2821.3472,97.0605
2822.3113,96.8738
2823.2756,96.672
2824.2397,96.4538
2825.2041,96.2192
2826.1682,95.9693
2827.1326,95.7056
2828.0967,95.4288
2829.0610,95.1386
2830.0251,94.8333
2830.9895,94.5121
2831.9536,94.1759
2832.9180,93.8282
2833.8821,93.4739
2834.8464,93.1183
2835.8105,92.7649
2836.7749,92.4152
2837.7390,92.0693
2838.7034,91.7272
2839.6675,91.3891
2840.6318,91.0535
2841.5959,90.7166
2842.5603,90.3719
2843.5244,90.0136
2844.4888,89.6422
2845.4529,89.269
2846.4172,88.9161
2847.3813,88.6107
2848.3457,88.3745
2849.3098,88.2145
2850.2742,88.1194
2851.2383,88.0646
2852.2026,88.0225
2853.1667,87.973
2854.1311,87.9086
2855.0952,87.8326
2856.0596,87.7531
2857.0237,87.6759
2857.9880,87.6004
2858.9521,87.5205
2859.9165,87.4277
2860.8806,87.3157
2861.8450,87.1833
2862.8091,87.0348
2863.7734,86.8787
2864.7375,86.7243
2865.7019,86.5786
2866.6660,86.4449
2867.6304,86.3227
2868.5945,86.2104
2869.5588,86.1072
2870.5229,86.015
2871.4873,85.9371
2872.4514,85.8767
2873.4158,85.8341
2874.3799,85.8069
2875.3442,85.7904
2876.3083,85.7795
2877.2727,85.7705
2878.2368,85.7608
2879.2012,85.7501
2880.1653,85.7397
2881.1296,85.7323
2882.0938,85.7312
2883.0581,85.7391
2884.0222,85.7566
2884.9866,85.7818
2885.9507,85.8105
2886.9150,85.8372
2887.8792,85.8558
2888.8435,85.8618
2889.8076,85.8534
2890.7720,85.8325
2891.7361,85.8036
2892.7004,85.7707
2893.6646,85.732
2894.6289,85.6784
2895.5930,85.5956
2896.5574,85.4727
2897.5215,85.3107
2898.4858,85.126
2899.4500,84.9448
2900.4143,84.7911
2901.3784,84.6757
2902.3428,84.5913
2903.3069,84.5182
2904.2712,84.4345
2905.2354,84.3246
2906.1997,84.1817
2907.1638,84.0052
2908.1282,83.7962
2909.0923,83.5559
2910.0566,83.2871
2911.0208,82.997
2911.9851,82.6983
2912.9492,82.4074
2913.9136,82.1406
2914.8777,81.9106
2915.8420,81.7238
2916.8062,81.5784
2917.7705,81.4658
2918.7346,81.3728
2919.6990,81.286
2920.6631,81.1969
2921.6274,81.1041
2922.5916,81.0123
2923.5559,80.9278
2924.5200,80.8545
2925.4844,80.7922
2926.4485,80.7381
2927.4128,80.6916
2928.3770,80.6558
2929.3413,80.6378
2930.3054,80.6448
2931.2698,80.682
2932.2339,80.7506
2933.1982,80.8493
2934.1624,80.9764
2935.1267,81.1311
2936.0908,81.312
2937.0552,81.5169
2938.0193,81.7409
2938.9836,81.9775
2939.9478,82.221
2940.9121,82.4673
2941.8762,82.7147
2942.8406,82.9622
2943.8047,83.2069
2944.7690,83.4432
2945.7332,83.6629
2946.6975,83.8584
2947.6616,84.0246
2948.6260,84.161
2949.5901,84.271
2950.5544,84.3604
2951.5186,84.4355
2952.4829,84.5024
2953.4470,84.5661
2954.4114,84.6314
2955.3755,84.7022
2956.3398,84.7814
2957.3040,84.8701
2958.2683,84.9678
2959.2324,85.0722
2960.1968,85.1803
2961.1609,85.2895
2962.1252,85.3982
2963.0894,85.5062
2964.0537,85.6148
2965.0178,85.7262
2965.9822,85.8426
2966.9463,85.9662
2967.9106,86.0998
2968.8748,86.2466
2969.8391,86.4103
2970.8032,86.5942
2971.7676,86.7996
2972.7317,87.0253
2973.6960,87.2681
2974.6602,87.5238
2975.6245,87.7889
2976.5886,88.0619
2977.5530,88.3423
2978.5171,88.6305
2979.4814,88.9258
2980.4456,89.2252
2981.4099,89.5222
2982.3740,89.807
2983.3384,90.0703
2984.3025,90.3086
2985.2668,90.5305
2986.2310,90.7574
2987.1953,91.0176
2988.1594,91.333
2989.1238,91.707
2990.0879,92.1194
2991.0522,92.5338
2992.0164,92.9134
2992.9807,93.2365
2993.9448,93.5038
2994.9092,93.7333
2995.8733,93.9486
2996.8376,94.1661
2997.8018,94.3906
2998.7661,94.6173
2999.7302,94.839
3000.6946,95.052
3001.6587,95.258
3002.6230,95.4626
3003.5872,95.6719
3004.5515,95.8886
3005.5156,96.1111
3006.4800,96.3336
3007.4441,96.5483
3008.4084,96.7496
3009.3726,96.9363
3010.3369,97.1127
3011.3010,97.286
3012.2654,97.4625
3013.2295,97.6435
3014.1938,97.8252
3015.1580,98.0006
3016.1223,98.1636
3017.0864,98.311
3018.0508,98.4425
3019.0149,98.5594
3019.9792,98.6628
3020.9434,98.7542
3021.9077,98.8365
3022.8718,98.9144
3023.8362,98.993
3024.8003,99.0746
3025.7646,99.1572
3026.7288,99.2352
3027.6931,99.3028
3028.6572,99.3577
3029.6216,99.4026
3030.5857,99.4442
3031.5500,99.4891
3032.5142,99.5407
3033.4785,99.598
3034.4426,99.6572
3035.4070,99.7142
3036.3711,99.766
3037.3354,99.8113
3038.2996,99.8493
3039.2639,99.8462
3040.2280,99.83
3041.1924,99.8054
3042.1565,99.7725
3043.1208,99.7321
3044.0850,99.6864
3045.0493,99.6381
3046.0134,99.591
3046.9778,99.5478
3047.9419,99.5083
3048.9063,99.4693
3049.8704,99.4251
3050.8347,99.3708
3051.7988,99.3053
3052.7632,99.2321
3053.7273,99.1588
3054.6917,99.0937
3055.6558,99.0427
3056.6201,99.0069
3057.5842,98.9819
3058.5486,98.9597
3059.5127,98.931
3060.4771,98.8888
3061.4412,98.8311
3062.4055,98.7624
3063.3696,98.6922
3064.3340,98.6314
3065.2981,98.5868
3066.2625,98.5582
3067.2266,98.5388
3068.1909,98.5198
3069.1550,98.4954
3070.1194,98.4649
3071.0835,98.4311
3072.0479,98.3966
3073.0120,98.3602
3073.9763,98.3177
3074.9404,98.2642
3075.9048,98.1987
3076.8689,98.1258
3077.8333,98.0545
3078.7974,97.994
3079.7617,97.9492
3080.7258,97.9189
3081.6902,97.8966
3082.6543,97.8733
3083.6187,97.8419
3084.5828,97.7995
3085.5471,97.7478
3086.5112,97.6919
3087.4756,97.6365
3088.4397,97.5839
3089.4041,97.5318
3090.3682,97.4754
3091.3325,97.4102
3092.2966,97.3347
3093.2610,97.2517
3094.2251,97.1659
3095.1895,97.0816
3096.1536,97
3097.1179,96.9202
3098.0820,96.8414
3099.0464,96.7651
3100.0105,96.6949
3100.9749,96.6338
3101.9390,96.582
3102.9033,96.5353
3103.8674,96.4872
3104.8318,96.4323
3105.7959,96.3686
3106.7603,96.2973
3107.7244,96.2216
3108.6887,96.1438
3109.6528,96.0648
3110.6172,95.984
3111.5813,95.9012
3112.5457,95.8171
3113.5098,95.7338
3114.4741,95.6536
3115.4382,95.578
3116.4026,95.507
3117.3667,95.4393
3118.3311,95.3734
3119.2952,95.308
3120.2595,95.2423
3121.2236,95.1759
3122.1880,95.1087
3123.1521,95.0413
3124.1165,94.9748
3125.0806,94.9101
3126.0449,94.8469
3127.0090,94.7827
3127.9734,94.7131
3128.9375,94.6345
3129.9019,94.547
3130.8660,94.4559
3131.8303,94.3703
3132.7944,94.2983
3133.7588,94.2424
3134.7229,94.1974
3135.6873,94.153
3136.6514,94.0993
3137.6157,94.0313
3138.5798,93.9509
3139.5442,93.8646
3140.5083,93.7791
3141.4727,93.6978
3142.4368,93.6195
3143.4011,93.5411
3144.3652,93.4598
3145.3296,93.3761
3146.2937,93.2933
3147.2581,93.2157
3148.2222,93.1457
3149.1865,93.0821
3150.1506,93.0201
3151.1150,92.9538
3152.0791,92.8791
3153.0435,92.7959
3154.0076,92.7072
3154.9719,92.6169
3155.9360,92.5278
3156.9004,92.4405
3157.8645,92.3549
3158.8289,92.2712
3159.7930,92.1901
3160.7573,92.1124
3161.7214,92.0374
3162.6858,91.9629
3163.6499,91.8865
3164.6143,91.8075
3165.5784,91.7281
3166.5427,91.6514
3167.5068,91.5796
3168.4712,91.5119
3169.4353,91.4898
3170.3997,91.4186
3171.3638,91.3405
3172.3281,91.2555
3173.2922,91.1661
3174.2566,91.0746
3175.2207,90.9835
3176.1851,90.8945
3177.1492,90.8091
3178.1135,90.7289
3179.0776,90.6543
3180.0420,90.5839
3181.0061,90.5156
3181.9705,90.4474
3182.9346,90.3786
3183.8989,90.3101
3184.8630,90.243
3185.8274,90.1773
3186.7915,90.1123
3187.7559,90.0469
3188.7200,89.9809
3189.6843,89.9148
3190.6484,89.8489
3191.6128,89.7815
3192.5769,89.7097
3193.5413,89.6307
3194.5054,89.5446
3195.4697,89.4549
3196.4338,89.3675
3197.3982,89.2881
3198.3623,89.2193
3199.3267,89.1605
3200.2908,89.1089
3201.2551,89.061
3202.2192,89.0136
3203.1836,88.9635
3204.1477,88.9084
3205.1121,88.8469
3206.0762,88.78
3207.0405,88.71
3208.0046,88.6397
3208.9690,88.5699
3209.9331,88.4996
3210.8975,88.4275
3211.8616,88.3543
3212.8259,88.284
3213.7900,88.2212
3214.7544,88.1685
3215.7185,88.1234
3216.6829,88.0798
3217.6470,88.0315
3218.6113,87.9761
3219.5754,87.9159
3220.5398,87.856
3221.5039,87.8001
3222.4683,87.7484
3223.4324,87.6981
3224.3967,87.6466
3225.3608,87.5942
3226.3252,87.5436
3227.2893,87.4983
3228.2537,87.4596
3229.2178,87.4251
3230.1821,87.3898
3231.1462,87.3491
3232.1106,87.301
3233.0747,87.2468
3234.0391,87.1898
3235.0032,87.133
3235.9675,87.0777
3236.9316,87.0227
3237.8960,86.9661
3238.8601,86.9066
3239.8245,86.8454
3240.7886,86.7859
3241.7529,86.7329
3242.7170,86.6903
3243.6814,86.6592
3244.6455,86.6365
3245.6099,86.6153
3246.5740,86.5879
3247.5383,86.5491
3248.5024,86.4988
3249.4668,86.4415
3250.4309,86.3839
3251.3953,86.3314
3252.3594,86.2853
3253.3237,86.2429
3254.2878,86.1995
3255.2522,86.1526
3256.2163,86.1036
3257.1807,86.0578
3258.1448,86.0195
3259.1091,85.9896
3260.0732,85.9636
3261.0376,85.9346
3262.0017,85.8978
3262.9661,85.8532
3263.9302,85.806
3264.8945,85.7627
3265.8586,85.727
3266.8230,85.6972
3267.7871,85.667
3268.7515,85.6295
3269.7156,85.5811
3270.6799,85.5232
3271.6440,85.4618
3272.6084,85.4041
3273.5725,85.3556
3274.5369,85.3183
3275.5010,85.2906
3276.4653,85.269
3277.4294,85.2496
3278.3938,85.2301
3279.3579,85.2091
3280.3223,85.1863
3281.2864,85.1616
3282.2507,85.1347
3283.2148,85.1052
3284.1792,85.0725
3285.1433,85.0362
3286.1077,84.9963
3287.0718,84.9531
3288.0361,84.9073
3289.0002,84.8605
3289.9646,84.8154
3290.9287,84.7753
3291.8931,84.7435
3292.8572,84.7216
3293.8215,84.7088
3294.7856,84.7014
3295.7500,84.694
3296.7141,84.6809
3297.6785,84.6582
3298.6426,84.6258
3299.6069,84.5872
3300.5710,84.5482
3301.5354,84.514
3302.4995,84.4869
3303.4639,84.4652
3304.4280,84.4447
3305.3923,84.4212
3306.3564,84.3936
3307.3208,84.3635
3308.2849,84.3342
3309.2493,84.3084
3310.2134,84.2869
3311.1777,84.2683
3312.1418,84.2511
3313.1062,84.2341
3314.0703,84.2169
3315.0347,84.1983
3315.9988,84.1771
3316.9631,84.152
3317.9272,84.1233
3318.8916,84.0934
3319.8557,84.0655
3320.8201,84.042
3321.7842,84.0232
3322.7485,84.0072
3323.7126,83.9914
3324.6770,83.9746
3325.6411,83.9575
3326.6055,83.9412
3327.5696,83.9259
3328.5339,83.9095
3329.4980,83.8885
3330.4624,83.8606
3331.4265,83.8264
3332.3909,83.7901
3333.3550,83.7582
3334.3193,83.7358
3335.2834,83.7246
3336.2478,83.7212
3337.2119,83.7196
3338.1763,83.7142
3339.1404,83.7032
3340.1047,83.6881
3341.0688,83.6722
3342.0332,83.6576
3342.9973,83.6445
3343.9617,83.6316
3344.9258,83.6188
3345.8901,83.6085
3346.8542,83.6039
3347.8186,83.6067
3348.7827,83.6143
3349.7471,83.6203
3350.7112,83.6171
3351.6755,83.6001
3352.6396,83.5702
3353.6040,83.5332
3354.5681,83.4976
3355.5325,83.4707
3356.4966,83.4565
3357.4609,83.4549
3358.4250,83.4618
3359.3894,83.4709
3360.3535,83.4747
3361.3179,83.4672
3362.2820,83.446
3363.2463,83.4143
3364.2104,83.3801
3365.1748,83.3532
3366.1389,83.3409
3367.1033,83.3446
3368.0674,83.3597
3369.0317,83.3786
3369.9958,83.3947
3370.9602,83.4054
3371.9243,83.4115
3372.8887,83.415
3373.8528,83.417
3374.8171,83.4175
3375.7813,83.4159
3376.7456,83.4125
3377.7097,83.4081
3378.6741,83.4034
3379.6382,83.3973
3380.6025,83.3884
3381.5667,83.3769
3382.5310,83.366
3383.4951,83.3617
3384.4595,83.369
3385.4236,83.3889
3386.3879,83.4174
3387.3521,83.4486
3388.3164,83.478
3389.2805,83.5039
3390.2449,83.5263
3391.2090,83.5446
3392.1733,83.5575
3393.1375,83.5659
3394.1018,83.5748
3395.0659,83.5929
3396.0303,83.6271
3396.9944,83.6763
3397.9587,83.7299
3398.9229,83.7729
3399.8872,83.7955
3400.8513,83.7994
3401.8157,83.796
3402.7798,83.7983
3403.7441,83.8127
3404.7083,83.8366
3405.6726,83.863
3406.6367,83.8875
3407.6011,83.911
3408.5652,83.938
3409.5295,83.9705
3410.4937,84.0058
3411.4580,84.0378
3412.4221,84.0624
3413.3865,84.0806
3414.3506,84.0982
3415.3149,84.1213
3416.2791,84.152
3417.2434,84.1878
3418.2075,84.2245
3419.1719,84.2599
3420.1360,84.2949
3421.1003,84.3326
3422.0645,84.3746
3423.0288,84.4196
3423.9929,84.4648
3424.9573,84.5083
3425.9214,84.5515
3426.8857,84.5987
3427.8499,84.655
3428.8142,84.7226
3429.7783,84.7991
3430.7427,84.8781
3431.7068,84.9528
3432.6711,85.0192
3433.6353,85.0769
3434.5996,85.1279
3435.5637,85.1733
3436.5281,85.2122
3437.4922,85.2428
3438.4565,85.2652
3439.4207,85.283
3440.3850,85.3024
3441.3491,85.3291
3442.3135,85.3659
3443.2776,85.412
3444.2419,85.4657
3445.2061,85.5269
3446.1704,85.5966
3447.1345,85.6748
3448.0989,85.7574
3449.0630,85.8379
3450.0273,85.9111
3450.9915,85.9765
3451.9558,86.0383
3452.9199,86.102
3453.8843,86.1709
3454.8484,86.2435
3455.8127,86.3136
3456.7769,86.3742
3457.7412,86.4213
3458.7053,86.457
3459.6697,86.4887
3460.6338,86.5254
3461.5981,86.5738
3462.5623,86.6362
3463.5266,86.7111
3464.4907,86.7959
3465.4551,86.8882
3466.4192,86.9853
3467.3835,87.0825
3468.3477,87.1728
3469.3120,87.2492
3470.2761,87.3089
3471.2405,87.3564
3472.2046,87.4019
3473.1689,87.4566
3474.1331,87.5254
3475.0974,87.6039
3476.0615,87.6806
3477.0259,87.7444
3477.9900,87.7917
3478.9543,87.8286
3479.9185,87.8674
3480.8828,87.9198
3481.8469,87.9889
3482.8113,88.0678
3483.7754,88.146
3484.7397,88.2173
3485.7039,88.2841
3486.6682,88.3558
3487.6323,88.4422
3488.5967,88.5461
3489.5608,88.6598
3490.5251,88.7691
3491.4893,88.861
3492.4536,88.9309
3493.4177,88.9839
3494.3821,89.0318
3495.3462,89.0841
3496.3105,89.1413
3497.2747,89.1946
3498.2390,89.2341
3499.2031,89.2577
3500.1675,89.2762
3501.1316,89.31
3502.0959,89.3786
3503.0601,89.4848
3504.0244,89.6111
3504.9885,89.7328
3505.9529,89.8362
3506.9170,89.9239
3507.8813,90.0093
3508.8455,90.1061
3509.8098,90.2194
3510.7739,90.3426
3511.7383,90.4628
3512.7024,90.5706
3513.6667,90.6644
3514.6309,90.7484
3515.5952,90.8271
3516.5593,90.9023
3517.5237,90.9721
3518.4878,91.0333
3519.4521,91.0842
3520.4163,91.126
3521.3806,91.1637
3522.3447,91.2048
3523.3091,91.2557
3524.2732,91.3199
3525.2375,91.3978
3526.2017,91.4901
3527.1660,91.5984
3528.1301,91.7237
3529.0945,91.8626
3530.0586,92.0063
3531.0229,92.1463
3531.9871,92.2789
3532.9514,92.406
3533.9155,92.5334
3534.8799,92.6661
3535.8440,92.8041
3536.8083,92.939
3537.7725,93.0568
3538.7368,93.145
3539.7009,93.1999
3540.6653,93.2279
3541.6294,93.2431
3542.5938,93.2656
3543.5579,93.3193
3544.5222,93.4243
3545.4863,93.5805
3546.4507,93.7624
3547.4148,93.9356
3548.3792,94.0818
3549.3433,94.2052
3550.3076,94.3234
3551.2717,94.454
3552.2361,94.6056
3553.2002,94.7726
3554.1646,94.9392
3555.1287,95.0913
3556.0930,95.2234
3557.0571,95.3359
3558.0215,95.4294
3558.9856,95.5031
3559.9500,95.5566
3560.9141,95.5917
3561.8784,95.6129
3562.8425,95.6253
3563.8069,95.6364
3564.7710,95.6704
3565.7354,95.7815
3566.6995,96.0143
3567.6638,96.3267
3568.6279,96.6105
3569.5923,96.8018
3570.5564,96.9136
3571.5208,96.9884
3572.4849,97.0553
3573.4492,97.1221
3574.4133,97.1862
3575.3777,97.2463
3576.3418,97.3055
3577.3062,97.3678
3578.2703,97.4319
3579.2346,97.4903
3580.1987,97.5339
3581.1631,97.5601
3582.1272,97.5757
3583.0916,97.5904
3584.0557,97.6089
3585.0200,97.635
3585.9841,97.6848
3586.9485,97.7768
3587.9126,97.8871
3588.8770,97.954
3589.8411,97.9453
3590.8054,97.8824
3591.7695,97.8055
3592.7339,97.7428
3593.6980,97.7067
3594.6624,97.6968
3595.6265,97.7017
3596.5908,97.7089
3597.5549,97.7197
3598.5193,97.7517
3599.4834,97.8242
3600.4478,97.9389
3601.4119,98.0745
3602.3762,98.2033
3603.3403,98.3125
3604.3047,98.4071
3605.2688,98.4995
3606.2332,98.6024
3607.1973,98.7221
3608.1616,98.8467
3609.1257,98.9434
3610.0901,98.98
3611.0542,98.9508
3612.0186,98.8806
3612.9829,98.8085
3613.9470,98.7661
3614.9114,98.7652
3615.8755,98.7988
3616.8398,98.8513
3617.8040,98.9115
3618.7683,98.9716
3619.7324,99.0095
3620.6968,98.9899
3621.6609,98.9062
3622.6252,98.8023
3623.5894,98.742
3624.5537,98.762
3625.5178,98.8489
3626.4822,98.9552
3627.4463,99.0543
3628.4106,99.1636
3629.3748,99.2672
3630.3391,99.3007
3631.3032,99.2592
3632.2676,99.209
3633.2317,99.2107
3634.1960,99.2764
3635.1602,99.3774
3636.1245,99.474
3637.0886,99.5414
3638.0530,99.5773
3639.0171,99.5911
3639.9814,99.5919
3640.9456,99.5846
3641.9099,99.576
3642.8740,99.5783
3643.8384,99.5996
3644.8025,99.6231
3645.7668,99.5943
3646.7310,99.4623
3647.6953,99.307
3648.6594,99.3599
3649.6238,99.6558
3650.5879,99.928
3651.5522,100.022
3652.5164,100.001
3653.4807,99.9657
3654.4448,99.9592
3655.4092,99.9725
3656.3733,99.979
3657.3376,99.9612
3658.3018,99.9236
3659.2661,99.8906
3660.2302,99.8856
3661.1946,99.9107
3662.1587,99.9477
3663.1230,99.9785
3664.0872,100.003
3665.0515,100.032
3666.0156,100.06
3666.9800,100.056
3667.9441,99.9887
3668.9084,99.8786
3669.8726,99.7942
3670.8369,99.7746
3671.8010,99.8035
3672.7654,99.8411
3673.7295,99.85
3674.6938,99.8291
3675.6580,99.8207
3676.6223,99.8384
3677.5864,99.845
3678.5508,99.8267
3679.5149,99.8075
3680.4792,99.8054
3681.4434,99.8163
3682.4077,99.8324
3683.3718,99.8601
3684.3362,99.9116
3685.3003,99.9777
3686.2646,100.008
3687.2288,99.9385
3688.1931,99.7725
3689.1572,99.6174
3690.1216,99.5636
3691.0857,99.5878
3692.0500,99.6315
3693.0142,99.6725
3693.9785,99.711
3694.9426,99.7486
3695.9070,99.7862
3696.8711,99.8277
3697.8354,99.8779
3698.7996,99.9363
3699.7639,99.9963
3700.7280,100.049
3701.6924,100.084
3702.6565,100.093
3703.6208,100.074
3704.5850,100.04
3705.5493,100.016
3706.5134,100.008
3707.4778,100.005
3708.4419,99.9918
3709.4063,100.005
3710.3704,100.138
3711.3347,100.42
3712.2988,100.719
3713.2632,100.886
3714.2273,100.895
3715.1917,100.807
3716.1558,100.685
3717.1201,100.557
3718.0842,100.422
3719.0486,100.268
3720.0127,100.096
3720.9771,99.9199
3721.9412,99.7635
3722.9055,99.6525
3723.8696,99.6068
3724.8340,99.6281
3725.7981,99.6946
3726.7625,99.7746
3727.7266,99.8493
3728.6909,99.917
3729.6550,99.9754
3730.6194,100.006
3731.5835,99.9786
3732.5479,99.8883
3733.5120,99.8017
3734.4763,99.8309
3735.4404,99.9887
3736.4048,100.141
3737.3689,100.187
3738.3333,100.173
3739.2974,100.219
3740.2617,100.414
3741.2258,100.75
3742.1902,101.119
3743.1543,101.358
3744.1187,101.354
3745.0828,101.128
3746.0471,100.801
3747.0112,100.517
3747.9756,100.336
3748.9397,100.279
3749.9041,100.357
3750.8682,100.541
3751.8325,100.698
3752.7966,100.702
3753.7610,100.571
3754.7251,100.409
3755.6895,100.292
3756.6536,100.245
3757.6179,100.261
3758.5820,100.324
3759.5464,100.403
3760.5105,100.466
3761.4749,100.496
3762.4390,100.503
3763.4033,100.5
3764.3674,100.493
3765.3318,100.485
3766.2959,100.477
3767.2603,100.474
3768.2244,100.483
3769.1887,100.512
3770.1528,100.555
3771.1172,100.594
3772.0813,100.611
3773.0457,100.606
3774.0098,100.595
3774.9741,100.588
3775.9382,100.584
3776.9026,100.57
3777.8667,100.547
3778.8311,100.524
3779.7952,100.501
3780.7595,100.468
3781.7236,100.42
3782.6880,100.368
3783.6521,100.329
3784.6165,100.323
3785.5806,100.357
3786.5449,100.421
3787.5090,100.494
3788.4734,100.558
3789.4375,100.605
3790.4019,100.634
3791.3660,100.646
3792.3303,100.631
3793.2944,100.578
3794.2588,100.482
3795.2229,100.365
3796.1873,100.265
3797.1514,100.216
3798.1157,100.217
3799.0798,100.242
3800.0442,100.266
3801.0083,100.283
3801.9727,100.3
3802.9368,100.323
3803.9011,100.369
3804.8652,100.451
3805.8296,100.559
3806.7937,100.653
3807.7581,100.68
3808.7222,100.621
3809.6865,100.52
3810.6506,100.454
3811.6150,100.473
3812.5791,100.557
3813.5435,100.632
3814.5076,100.624
3815.4719,100.518
3816.4360,100.36
3817.4004,100.212
3818.3645,100.121
3819.3289,100.109
3820.2930,100.172
3821.2573,100.259
3822.2214,100.294
3823.1858,100.242
3824.1499,100.141
3825.1143,100.056
3826.0784,100.032
3827.0427,100.076
3828.0068,100.164
3828.9712,100.264
3829.9353,100.344
3830.8997,100.392
3831.8638,100.414
3832.8281,100.419
3833.7922,100.413
3834.7566,100.381
3835.7207,100.302
3836.6851,100.17
3837.6492,100.024
3838.6135,99.9224
3839.5776,99.9017
3840.5420,99.9572
3841.5061,100.064
3842.4705,100.19
3843.4346,100.291
3844.3989,100.329
3845.3630,100.29
3846.3274,100.211
3847.2915,100.163
3848.2559,100.217
3849.2200,100.401
3850.1843,100.672
3851.1484,100.925
3852.1128,101.091
3853.0769,101.195
3854.0413,101.203
3855.0054,101.017
3855.9697,100.691
3856.9338,100.383
3857.8982,100.201
3858.8623,100.156
3859.8267,100.187
3860.7908,100.207
3861.7551,100.172
3862.7192,100.11
3863.6836,100.089
3864.6477,100.147
3865.6121,100.263
3866.5762,100.386
3867.5405,100.464
3868.5046,100.465
3869.4690,100.394
3870.4331,100.3
3871.3975,100.233
3872.3616,100.212
3873.3259,100.226
3874.2900,100.257
3875.2544,100.301
3876.2185,100.351
3877.1829,100.393
3878.1470,100.406
3879.1113,100.377
3880.0754,100.325
3881.0398,100.289
3882.0039,100.303
3882.9683,100.375
3883.9324,100.481
3884.8967,100.577
3885.8608,100.624
3886.8252,100.605
3887.7893,100.535
3888.7537,100.442
3889.7178,100.35
3890.6821,100.275
3891.6462,100.229
3892.6106,100.211
3893.5747,100.208
3894.5391,100.221
3895.5032,100.261
3896.4675,100.321
3897.4316,100.374
3898.3960,100.391
3899.3601,100.367
3900.3245,100.322
3901.2886,100.28
3902.2529,100.256
3903.2170,100.256
3904.1814,100.273
3905.1455,100.29
3906.1099,100.294
3907.0740,100.291
3908.0383,100.29
3909.0024,100.296
3909.9668,100.302
3910.9309,100.301
3911.8953,100.296
3912.8594,100.293
3913.8237,100.295
3914.7878,100.302
3915.7522,100.306
3916.7163,100.301
3917.6807,100.283
3918.6448,100.244
3919.6091,100.181
3920.5732,100.107
3921.5376,100.038
3922.5017,99.9914
3923.4661,99.9757
3924.4302,99.9847
3925.3945,99.9996
3926.3586,100.001
3927.3230,99.9802
3928.2871,99.9455
3929.2515,99.9123
3930.2156,99.901
3931.1799,99.9297
3932.1440,99.9988
3933.1084,100.086
3934.0725,100.161
3935.0369,100.21
3936.0010,100.232
3936.9653,100.232
3937.9294,100.212
3938.8938,100.174
3939.8579,100.12
3940.8223,100.064
3941.7864,100.024
3942.7507,100.013
3943.7148,100.029
3944.6792,100.055
3945.6433,100.072
3946.6077,100.07
3947.5718,100.047
3948.5361,100.014
3949.5002,99.9898
3950.4646,99.9837
3951.4287,99.9958
3952.3931,100.019
3953.3572,100.045
3954.3215,100.068
3955.2856,100.084
3956.2500,100.091
3957.2141,100.091
3958.1785,100.085
3959.1426,100.076
3960.1069,100.067
3961.0710,100.064
3962.0354,100.07
3962.9995,100.086
3963.9639,100.106
3964.9280,100.123
3965.8923,100.129
3966.8564,100.12
3967.8208,100.098
3968.7849,100.069
3969.7493,100.04
3970.7134,100.02
3971.6777,100.012
3972.6418,100.016
3973.6062,100.024
3974.5703,100.032
3975.5347,100.035
3976.4988,100.036
3977.4631,100.037
3978.4272,100.042
3979.3916,100.049
3980.3557,100.054
3981.3201,100.051
3982.2842,100.038
3983.2485,100.021
3984.2126,100.006
3985.1770,99.9989
3986.1411,99.9995
3987.1055,100.003
3988.0696,100.002
3989.0339,99.9897
3989.9980,99.9663
3990.9624,99.9373
3991.9265,99.913
3992.8909,99.9037
3993.8550,99.9147
3994.8193,99.9433
3995.7834,99.979
3996.7478,100.008
3997.7119,100.021
3998.6763,100.016
3999.6404,100
4000.6047,99.7768

##### Extended Information
[Comments]
Sample name
Comment
User
Division
Company,HANKYONG

[Detailed Information]
Creation date,4/24/2024 11:49 AM

Data array type,Linear data array
Horizontal axis,Wavenumber [cm-1]
Vertical axis,%T
Start,649.893 cm-1
End,4000.6 cm-1
Data interval,0.964233 cm-1
Data points,3476    

[Measurement Information]
Model Name,FT/IR-4700typeA
Serial Number,D056761788

Accessory,ATR PRO ONE
Accessory S/N,C174761809
Incident angle,45 deg

Measurement Date,4/24/2024 11:49 AM

Light Source,Standard
Detector,TGS
Accumulation,32
Resolution,4 cm-1
Zero Filling,On
Apodization,Cosine
Gain,Auto (4)
Aperture,Auto (7.1 mm)
Scanning Speed,Auto (2 mm/sec)
Filter,Auto (30000 Hz)

