TITLE,
DATA TYPE,INFRARED SPECTRUM
ORIGIN,JASCO
OWNER,
DATE,24/04/24
TIME,10:45:39
SPECTROMETER/DATA SYSTEM,
LOCALE,1033
RESOLUTION,
DELTAX,0.964233
XUNITS,1/CM
YUNITS,TRANSMITTANCE
FIRSTX,  649.8934
LASTX, 4000.6047
NPOINTS,    3476
FIRSTY,    98.42741
MAXY,   100.93885
MINY,    62.26468
XYDATA
649.8934,98.4274
650.8576,98.416
651.8218,98.3925
652.7861,98.3847
653.7503,98.4109
654.7145,98.4665
655.6788,98.5239
656.6430,98.4749
657.6072,98.3635
658.5715,98.2135
659.5357,98.0613
660.4999,97.9471
661.4642,97.8872
662.4284,97.8604
663.3926,97.8188
664.3569,97.7059
665.3211,97.4659
666.2853,97.0572
667.2496,96.5107
668.2138,96.0162
669.1780,95.8166
670.1423,95.9123
671.1065,96.1045
672.0707,96.2401
673.0350,96.2663
673.9992,96.19
674.9634,96.0526
675.9277,95.914
676.8919,95.8268
677.8561,95.8114
678.8204,95.8527
679.7846,95.9192
680.7488,95.9829
681.7131,96.0287
682.6773,96.0526
683.6415,96.0559
684.6058,96.0413
685.5700,96.0129
686.5342,95.977
687.4985,95.9418
688.4627,95.9134
689.4269,95.8916
690.3912,95.8707
691.3554,95.8468
692.3196,95.8273
693.2839,95.8305
694.2481,95.8687
695.2123,95.9317
696.1766,95.9929
697.1408,96.025
698.1050,96.0063
699.0693,95.925
700.0335,95.7802
700.9977,95.5834
701.9620,95.3568
702.9262,95.1315
703.8904,94.9405
704.8547,94.8082
705.8189,94.7391
706.7831,94.7125
707.7474,94.6901
708.7116,94.6323
709.6758,94.5153
710.6401,94.3379
711.6043,94.1141
712.5685,93.8587
713.5328,93.5754
714.4970,93.2571
715.4612,92.9369
716.4255,92.5456
717.3897,92.1623
718.3539,91.8432
719.3182,91.6409
720.2824,91.5767
721.2466,91.6255
722.2109,91.7284
723.1751,91.8234
724.1393,91.8724
725.1036,91.8678
726.0678,91.8234
727.0320,91.7583
727.9963,91.6851
728.9605,91.6052
729.9247,91.5126
730.8890,91.4005
731.8532,91.2654
732.8174,91.1049
733.7817,90.9132
734.7459,90.6768
735.7101,90.3767
736.6744,89.9954
737.6386,89.5271
738.6028,88.9847
739.5671,88.399
740.5313,87.8095
741.4955,87.2519
742.4598,86.7487
743.4240,86.308
744.3882,85.9297
745.3525,85.614
746.3167,85.365
747.2809,85.1877
748.2452,85.0809
749.2094,85.0331
750.1736,85.0232
751.1379,85.029
752.1021,85.0355
753.0663,85.039
754.0306,85.0453
754.9948,85.0625
755.9590,85.0931
756.9233,85.1304
757.8875,85.1605
758.8517,85.1681
759.8160,85.1437
760.7802,85.0881
761.7444,85.0116
762.7087,84.93
763.6729,84.8605
764.6371,84.8181
765.6014,84.8165
766.5656,84.8677
767.5298,84.9797
768.4941,85.1517
769.4583,85.3685
770.4225,85.6016
771.3868,85.8161
772.3510,85.9822
773.3152,86.0833
774.2795,86.1176
775.2437,86.0925
776.2079,86.0179
777.1722,85.9018
778.1364,85.7512
779.1006,85.5741
780.0649,85.3804
781.0291,85.1804
781.9933,84.983
782.9576,84.7962
783.9218,84.6275
784.8860,84.483
785.8503,84.3634
786.8145,84.2594
787.7787,84.1518
788.7430,84.0192
789.7072,83.8498
790.6714,83.6499
791.6357,83.4425
792.5999,83.2551
793.5641,83.1035
794.5284,82.9833
795.4926,82.8727
796.4568,82.7464
797.4211,82.5899
798.3853,82.4056
799.3495,82.2075
800.3138,82.0095
801.2780,81.8152
802.2422,81.6172
803.2065,81.4035
804.1707,81.1666
805.1349,80.9089
806.0992,80.6406
807.0634,80.3737
808.0276,80.1162
808.9919,79.8708
809.9561,79.6382
810.9203,79.4211
811.8846,79.2264
812.8488,79.062
813.8130,78.9326
814.7773,78.8356
815.7415,78.7623
816.7057,78.7018
817.6700,78.6463
818.6342,78.5948
819.5984,78.5524
820.5627,78.5271
821.5269,78.5248
822.4911,78.5466
823.4554,78.5879
824.4196,78.6405
825.3839,78.6955
826.3481,78.7464
827.3123,78.7905
828.2766,78.8277
829.2408,78.8587
830.2050,78.8825
831.1693,78.8948
832.1335,78.8888
833.0977,78.8575
834.0620,78.7962
835.0262,78.7046
835.9904,78.5867
836.9547,78.4497
837.9189,78.301
838.8831,78.1457
839.8474,77.9855
840.8116,77.8184
841.7758,77.6411
842.7401,77.4517
843.7043,77.2522
844.6685,77.0481
845.6328,76.8466
846.5970,76.6529
847.5612,76.4691
848.5255,76.2945
849.4897,76.129
850.4539,75.9759
851.4182,75.8418
852.3824,75.7333
853.3466,75.6531
854.3109,75.5972
855.2751,75.5569
856.2393,75.5226
857.2036,75.4891
858.1678,75.4572
859.1320,75.4314
860.0963,75.4168
861.0605,75.4155
862.0247,75.4267
862.9890,75.4497
863.9532,75.4872
864.9174,75.5456
865.8817,75.6319
866.8459,75.7489
867.8101,75.892
868.7744,76.0507
869.7386,76.2126
870.7028,76.3681
871.6671,76.5109
872.6313,76.6348
873.5955,76.7301
874.5598,76.7836
875.5240,76.7852
876.4882,76.735
877.4525,76.6474
878.4167,76.548
879.3809,76.464
880.3452,76.4147
881.3094,76.4069
882.2736,76.4363
883.2379,76.4916
884.2021,76.5595
885.1663,76.6278
886.1306,76.6886
887.0948,76.7422
888.0590,76.801
889.0233,76.8869
889.9875,77.0244
890.9517,77.2296
891.9160,77.5028
892.8802,77.8296
893.8444,78.189
894.8087,78.5638
895.7729,78.9447
896.7371,79.3293
897.7014,79.7157
898.6656,80.0989
899.6298,80.4723
900.5941,80.8313
901.5583,81.176
902.5225,81.5101
903.4868,81.8367
904.4510,82.155
905.4152,82.4595
906.3795,82.7417
907.3437,82.9934
908.3079,83.2094
909.2722,83.3894
910.2364,83.5383
911.2006,83.6668
912.1649,83.7889
913.1291,83.9182
914.0933,84.0636
915.0576,84.2268
916.0218,84.4036
916.9860,84.5876
917.9503,84.774
918.9145,84.9616
919.8787,85.1517
920.8430,85.3462
921.8072,85.546
922.7714,85.7519
923.7357,85.9654
924.6999,86.1889
925.6641,86.4242
926.6284,86.6715
927.5926,86.9296
928.5568,87.1997
929.5211,87.4907
930.4853,87.822
931.4495,88.2233
932.4138,88.7278
933.3780,89.3629
934.3422,90.1406
935.3065,91.0509
936.2707,92.0622
937.2349,93.127
938.1992,94.1915
939.1634,95.2068
940.1276,96.1368
941.0919,96.9617
942.0561,97.6766
943.0203,98.2861
943.9846,98.7985
944.9488,99.2218
945.9130,99.563
946.8773,99.8301
947.8415,100.033
948.8057,100.184
949.7700,100.296
950.7342,100.379
951.6984,100.441
952.6627,100.482
953.6269,100.502
954.5911,100.495
955.5554,100.457
956.5196,100.399
957.4838,100.35
958.4481,100.272
959.4123,100.169
960.3765,100.045
961.3408,99.9031
962.3050,99.7452
963.2692,99.5738
964.2335,99.3946
965.1977,99.217
966.1619,99.0521
967.1262,98.9087
968.0904,98.7904
969.0546,98.6946
970.0189,98.6156
970.9831,98.5478
971.9473,98.4892
972.9116,98.4407
973.8758,98.4047
974.8400,98.3809
975.8043,98.3656
976.7685,98.3514
977.7327,98.3295
978.6970,98.2931
979.6612,98.2385
980.6254,98.1647
981.5897,98.072
982.5539,97.9591
983.5181,97.8225
984.4824,97.6584
985.4466,97.4657
986.4108,97.2495
987.3751,97.0209
988.3393,96.7955
989.3035,96.5883
990.2678,96.4092
991.2320,96.2615
992.1962,96.1421
993.1605,96.0439
994.1247,95.9593
995.0889,95.8816
996.0532,95.8066
997.0174,95.7316
997.9816,95.6546
998.9459,95.5715
999.9101,95.4757
1000.8743,95.3573
1001.8386,95.2047
1002.8028,95.0054
1003.7670,94.7481
1004.7313,94.4237
1005.6955,94.0265
1006.6597,93.5546
1007.6240,93.0093
1008.5882,92.3938
1009.5524,91.7108
1010.5167,90.9622
1011.4809,90.1493
1012.4451,89.2757
1013.4094,88.3469
1014.3736,87.3689
1015.3378,86.3456
1016.3021,85.2781
1017.2663,84.1691
1018.2305,83.026
1019.1948,81.8598
1020.1590,80.6765
1021.1232,79.4675
1022.0875,78.2093
1023.0517,76.8785
1024.0160,75.477
1024.9802,74.0495
1025.9445,72.677
1026.9087,71.4461
1027.8729,70.4092
1028.8372,69.5596
1029.8014,68.8388
1030.7656,68.1693
1031.7299,67.4934
1032.6941,66.7963
1033.6583,66.1034
1034.6226,65.4611
1035.5868,64.9137
1036.5510,64.4895
1037.5153,64.1963
1038.4795,64.0238
1039.4437,63.9473
1040.4080,63.9328
1041.3722,63.9461
1042.3364,63.962
1043.3007,63.9708
1044.2649,63.9786
1045.2291,64.0001
1046.1934,64.0505
1047.1576,64.1413
1048.1218,64.2807
1049.0861,64.4763
1050.0503,64.7337
1051.0145,65.0516
1051.9788,65.418
1052.9430,65.813
1053.9072,66.221
1054.8715,66.6462
1055.8357,67.1172
1056.7999,67.6732
1057.7642,68.3329
1058.7284,69.0629
1059.6926,69.7668
1060.6569,70.3121
1061.6211,70.5859
1062.5853,70.5545
1063.5496,70.2903
1064.5138,69.9472
1065.4780,69.6904
1066.4423,69.6196
1067.4065,69.7239
1068.3707,69.8948
1069.3350,69.9859
1070.2992,69.884
1071.2634,69.5523
1072.2277,69.0298
1073.1919,68.3957
1074.1561,67.7267
1075.1204,67.0702
1076.0846,66.4427
1077.0488,65.8436
1078.0131,65.2709
1078.9773,64.7286
1079.9415,64.2256
1080.9058,63.7708
1081.8700,63.3694
1082.8342,63.0223
1083.7985,62.7295
1084.7627,62.495
1085.7269,62.3321
1086.6912,62.2647
1087.6554,62.3213
1088.6196,62.5224
1089.5839,62.8664
1090.5481,63.3231
1091.5123,63.8397
1092.4766,64.3594
1093.4408,64.8411
1094.4050,65.2714
1095.3693,65.6619
1096.3335,66.0372
1097.2977,66.4204
1098.2620,66.8251
1099.2262,67.2551
1100.1904,67.7092
1101.1547,68.185
1102.1189,68.6815
1103.0831,69.1986
1104.0474,69.7371
1105.0116,70.2992
1105.9758,70.8888
1106.9401,71.5101
1107.9043,72.167
1108.8685,72.8626
1109.8328,73.6005
1110.7970,74.3853
1111.7612,75.2218
1112.7255,76.112
1113.6897,77.0511
1114.6539,78.0279
1115.6182,79.0283
1116.5824,80.0424
1117.5466,81.0698
1118.5109,82.1206
1119.4751,83.2095
1120.4393,84.348
1121.4036,85.5365
1122.3678,86.7628
1123.3320,88.0053
1124.2963,89.24
1125.2605,90.4479
1126.2247,91.6178
1127.1890,92.745
1128.1532,93.8261
1129.1174,94.853
1130.0817,95.8106
1131.0459,96.6787
1132.0101,97.4372
1132.9744,98.0729
1133.9386,98.5825
1134.9028,98.9715
1135.8671,99.2488
1136.8313,99.4086
1137.7955,99.4236
1138.7598,99.3285
1139.7240,99.1171
1140.6882,98.7893
1141.6525,98.3554
1142.6167,97.8387
1143.5809,97.2719
1144.5452,96.6908
1145.5094,96.1264
1146.4736,95.6
1147.4379,95.1222
1148.4021,94.6973
1149.3663,94.3294
1150.3306,94.0269
1151.2948,93.8015
1152.2590,93.6624
1153.2233,93.608
1154.1875,93.6203
1155.1517,93.6666
1156.1160,93.7073
1157.0802,93.7074
1158.0444,93.6455
1159.0087,93.5167
1159.9729,93.3273
1160.9371,93.0872
1161.9014,92.8017
1162.8656,92.4696
1163.8298,92.0867
1164.7941,91.6523
1165.7583,91.1747
1166.7225,90.6716
1167.6868,90.1657
1168.6510,89.677
1169.6152,89.2163
1170.5795,88.7831
1171.5437,88.368
1172.5079,87.9585
1173.4722,87.5447
1174.4364,87.1231
1175.4006,86.6965
1176.3649,86.2711
1177.3291,85.8516
1178.2933,85.4381
1179.2576,85.0253
1180.2218,84.6041
1181.1860,84.1662
1182.1503,83.7082
1183.1145,83.2332
1184.0787,82.7497
1185.0430,82.2676
1186.0072,81.7932
1186.9714,81.3267
1187.9357,80.8628
1188.8999,80.3945
1189.8641,79.917
1190.8284,79.4302
1191.7926,78.9385
1192.7568,78.4482
1193.7211,77.9652
1194.6853,77.4938
1195.6495,77.0361
1196.6138,76.5937
1197.5780,76.1679
1198.5422,75.7603
1199.5065,75.3922
1200.4707,75.0237
1201.4349,74.6778
1202.3992,74.3549
1203.3634,74.0541
1204.3276,73.774
1205.2919,73.5129
1206.2561,73.27
1207.2203,73.0462
1208.1846,72.8443
1209.1488,72.6678
1210.1130,72.52
1211.0773,72.402
1212.0415,72.3125
1213.0057,72.2482
1213.9700,72.2047
1214.9342,72.1784
1215.8984,72.1673
1216.8627,72.1709
1217.8269,72.1896
1218.7911,72.2227
1219.7554,72.2678
1220.7196,72.32
1221.6838,72.3726
1222.6481,72.4191
1223.6123,72.4543
1224.5765,72.4759
1225.5408,72.4844
1226.5050,72.4814
1227.4692,72.466
1228.4335,72.4317
1229.3977,72.3677
1230.3619,72.2653
1231.3262,72.127
1232.2904,71.9748
1233.2546,71.8481
1234.2189,71.7921
1235.1831,71.8405
1236.1473,72.0041
1237.1116,72.2726
1238.0758,72.6284
1239.0400,73.0622
1240.0043,73.5768
1240.9685,74.175
1241.9327,74.839
1242.8970,75.5189
1243.8612,76.1408
1244.8254,76.6338
1245.7897,76.9599
1246.7539,77.1283
1247.7181,77.185
1248.6824,77.1865
1249.6466,77.1737
1250.6108,77.1601
1251.5751,77.1361
1252.5393,77.0832
1253.5035,76.9883
1254.4678,76.8498
1255.4320,76.6764
1256.3962,76.4825
1257.3605,76.2842
1258.3247,76.0979
1259.2889,75.9386
1260.2532,75.8191
1261.2174,75.7477
1262.1816,75.7274
1263.1459,75.7561
1264.1101,75.8275
1265.0743,75.9323
1266.0386,76.0595
1267.0028,76.1977
1267.9670,76.3372
1268.9313,76.4717
1269.8955,76.5989
1270.8597,76.7204
1271.8240,76.8408
1272.7882,76.9662
1273.7524,77.1031
1274.7167,77.2568
1275.6809,77.431
1276.6451,77.6264
1277.6094,77.8406
1278.5736,78.0693
1279.5378,78.3068
1280.5021,78.547
1281.4663,78.7847
1282.4305,79.0162
1283.3948,79.24
1284.3590,79.4571
1285.3232,79.6713
1286.2875,79.8875
1287.2517,80.1106
1288.2159,80.3429
1289.1802,80.584
1290.1444,80.8313
1291.1086,81.0819
1292.0729,81.3348
1293.0371,81.5908
1294.0013,81.852
1294.9656,82.1195
1295.9298,82.3917
1296.8940,82.6638
1297.8583,82.9291
1298.8225,83.181
1299.7867,83.4148
1300.7510,83.6287
1301.7152,83.8234
1302.6794,84.0016
1303.6437,84.1665
1304.6079,84.3202
1305.5721,84.4629
1306.5364,84.5933
1307.5006,84.7096
1308.4648,84.8118
1309.4291,84.9024
1310.3933,84.9863
1311.3575,85.0685
1312.3218,85.1514
1313.2860,85.2338
1314.2502,85.3126
1315.2145,85.3854
1316.1787,85.4533
1317.1429,85.5206
1318.1072,85.5913
1319.0714,85.6654
1320.0356,85.7381
1320.9999,85.8017
1321.9641,85.8509
1322.9283,85.8857
1323.8926,85.9102
1324.8568,85.9302
1325.8210,85.95
1326.7853,85.9708
1327.7495,85.9923
1328.7137,86.0154
1329.6780,86.0437
1330.6422,86.0825
1331.6064,86.1335
1332.5707,86.1917
1333.5349,86.2445
1334.4991,86.278
1335.4634,86.284
1336.4276,86.2684
1337.3918,86.2531
1338.3561,86.2701
1339.3203,86.3396
1340.2845,86.4508
1341.2488,86.567
1342.2130,86.6516
1343.1772,86.6867
1344.1415,86.6728
1345.1057,86.6203
1346.0699,86.543
1347.0342,86.4529
1347.9984,86.358
1348.9626,86.2602
1349.9269,86.1572
1350.8911,86.0463
1351.8553,85.9275
1352.8196,85.8056
1353.7838,85.6883
1354.7480,85.5818
1355.7123,85.4864
1356.6765,85.3954
1357.6407,85.3003
1358.6050,85.1966
1359.5692,85.089
1360.5334,84.9942
1361.4977,84.936
1362.4619,84.9292
1363.4261,84.9623
1364.3904,85.0064
1365.3546,85.0383
1366.3188,85.0517
1367.2831,85.0501
1368.2473,85.0363
1369.2115,85.0081
1370.1758,84.9599
1371.1400,84.8885
1372.1042,84.7994
1373.0685,84.7087
1374.0327,84.637
1374.9969,84.5943
1375.9612,84.5719
1376.9254,84.5541
1377.8896,84.5368
1378.8539,84.5326
1379.8181,84.5625
1380.7823,84.641
1381.7466,84.7695
1382.7108,84.9427
1383.6750,85.1626
1384.6393,85.4451
1385.6035,85.805
1386.5677,86.2191
1387.5320,86.6
1388.4962,86.8328
1389.4604,86.8545
1390.4247,86.6851
1391.3889,86.4
1392.3531,86.0989
1393.3174,85.8899
1394.2816,85.8619
1395.2458,86.0328
1396.2101,86.3154
1397.1743,86.5628
1398.1385,86.6618
1399.1028,86.5857
1400.0670,86.375
1401.0313,86.0903
1401.9955,85.7801
1402.9597,85.4758
1403.9240,85.2008
1404.8882,84.9762
1405.8524,84.8156
1406.8167,84.7154
1407.7809,84.6606
1408.7451,84.6386
1409.7094,84.6445
1410.6736,84.6756
1411.6378,84.7218
1412.6021,84.7655
1413.5663,84.7914
1414.5305,84.7958
1415.4948,84.7853
1416.4590,84.7705
1417.4232,84.7623
1418.3875,84.7609
1419.3517,84.7415
1420.3159,84.6662
1421.2802,84.5214
1422.2444,84.3247
1423.2086,84.1042
1424.1729,83.8813
1425.1371,83.6668
1426.1013,83.4621
1427.0656,83.2633
1428.0298,83.0659
1428.9940,82.87
1429.9583,82.6826
1430.9225,82.5127
1431.8867,82.3659
1432.8510,82.2406
1433.8152,82.128
1434.7794,82.0132
1435.7437,81.8837
1436.7079,81.7333
1437.6721,81.5528
1438.6364,81.332
1439.6006,81.0749
1440.5648,80.7991
1441.5291,80.5216
1442.4933,80.2509
1443.4575,79.9859
1444.4218,79.7191
1445.3860,79.4408
1446.3502,79.1449
1447.3145,78.8349
1448.2787,78.5233
1449.2429,78.2248
1450.2072,77.95
1451.1714,77.7068
1452.1356,77.5031
1453.0999,77.3408
1454.0641,77.2093
1455.0283,77.0915
1455.9926,77.0017
1456.9568,77.0022
1457.9210,77.0803
1458.8853,77.1112
1459.8495,77.0479
1460.8137,76.9523
1461.7780,76.9103
1462.7422,77.0023
1463.7064,77.3002
1464.6707,77.8253
1465.6349,78.4907
1466.5991,79.1507
1467.5634,79.7292
1468.5276,80.254
1469.4918,80.8047
1470.4561,81.4702
1471.4203,82.3288
1472.3845,83.3891
1473.3488,84.4954
1474.3130,85.3912
1475.2772,85.9493
1476.2415,86.2203
1477.2057,86.3088
1478.1699,86.3008
1479.1342,86.2629
1480.0984,86.254
1481.0626,86.322
1482.0269,86.4863
1482.9911,86.7283
1483.9553,87.0048
1484.9196,87.2707
1485.8838,87.4948
1486.8480,87.6662
1487.8123,87.8007
1488.7765,87.9336
1489.7407,88.0694
1490.7050,88.1576
1491.6692,88.1564
1492.6334,88.0722
1493.5977,87.9272
1494.5619,87.7242
1495.5261,87.4424
1496.4904,87.0626
1497.4546,86.6009
1498.4188,86.1045
1499.3831,85.6167
1500.3473,85.1688
1501.3115,84.7905
1502.2758,84.5028
1503.2400,84.3014
1504.2042,84.1431
1505.1685,83.9559
1506.1327,83.7233
1507.0969,83.571
1508.0612,83.5517
1509.0254,83.5075
1509.9896,83.3553
1510.9539,83.1355
1511.9181,82.9103
1512.8823,82.7391
1513.8466,82.6913
1514.8108,82.8429
1515.7750,83.2397
1516.7393,83.863
1517.7035,84.6575
1518.6677,85.6061
1519.6320,86.7565
1520.5962,88.1349
1521.5604,89.6244
1522.5247,91.0013
1523.4889,92.1302
1524.4531,93.0574
1525.4174,93.9072
1526.3816,94.7394
1527.3458,95.511
1528.3101,96.149
1529.2743,96.6336
1530.2385,97.0148
1531.2028,97.3789
1532.1670,97.7981
1533.1312,98.2717
1534.0955,98.7137
1535.0597,99.0386
1536.0239,99.2394
1536.9882,99.355
1537.9524,99.3999
1538.9166,99.3551
1539.8809,99.271
1540.8451,99.3398
1541.8093,99.6234
1542.7736,99.9376
1543.7378,100.163
1544.7020,100.3
1545.6663,100.365
1546.6305,100.367
1547.5947,100.32
1548.5590,100.244
1549.5232,100.157
1550.4874,100.06
1551.4517,99.9427
1552.4159,99.7982
1553.3801,99.6409
1554.3444,99.5168
1555.3086,99.4239
1556.2728,99.3453
1557.2371,99.2653
1558.2013,99.2477
1559.1655,99.3075
1560.1298,99.2334
1561.0940,98.9273
1562.0582,98.5032
1563.0225,98.0851
1563.9867,97.7309
1564.9509,97.4456
1565.9152,97.2029
1566.8794,96.9622
1567.8436,96.688
1568.8079,96.3714
1569.7721,96.0337
1570.7363,95.703
1571.7006,95.3957
1572.6648,95.1058
1573.6290,94.7963
1574.5933,94.4096
1575.5575,93.9206
1576.5217,93.3892
1577.4860,92.8987
1578.4502,92.4601
1579.4144,92.0382
1580.3787,91.6045
1581.3429,91.1437
1582.3071,90.6513
1583.2714,90.1344
1584.2356,89.6071
1585.1998,89.0775
1586.1641,88.5431
1587.1283,87.9989
1588.0925,87.4465
1589.0568,86.8952
1590.0210,86.3557
1590.9852,85.8342
1591.9495,85.334
1592.9137,84.8629
1593.8779,84.4358
1594.8422,84.0691
1595.8064,83.7699
1596.7706,83.5313
1597.7349,83.3376
1598.6991,83.1745
1599.6633,83.0343
1600.6276,82.9165
1601.5918,82.8248
1602.5560,82.7614
1603.5203,82.7234
1604.4845,82.7042
1605.4487,82.6994
1606.4130,82.7137
1607.3772,82.7611
1608.3414,82.8555
1609.3057,82.9944
1610.2699,83.154
1611.2341,83.3091
1612.1984,83.4563
1613.1626,83.6192
1614.1268,83.8442
1615.0911,84.1901
1616.0553,84.6811
1617.0195,85.23
1617.9838,85.683
1618.9480,85.9813
1619.9122,86.1924
1620.8765,86.4196
1621.8407,86.7324
1622.8049,87.1399
1623.7692,87.5907
1624.7334,88.0151
1625.6976,88.3881
1626.6619,88.7381
1627.6261,89.0965
1628.5903,89.4556
1629.5546,89.7796
1630.5188,90.0473
1631.4830,90.271
1632.4473,90.4783
1633.4115,90.691
1634.3757,90.9318
1635.3400,91.2366
1636.3042,91.5906
1637.2684,91.8852
1638.2327,92.0517
1639.1969,92.1261
1640.1611,92.1718
1641.1254,92.2265
1642.0896,92.2982
1643.0538,92.3714
1644.0181,92.4126
1644.9823,92.3929
1645.9465,92.3321
1646.9108,92.2959
1647.8750,92.3168
1648.8392,92.3879
1649.8035,92.5064
1650.7677,92.655
1651.7319,92.7781
1652.6962,92.8373
1653.6604,92.8396
1654.6246,92.7232
1655.5889,92.451
1656.5531,92.1178
1657.5173,91.8278
1658.4816,91.6193
1659.4458,91.4727
1660.4100,91.3427
1661.3743,91.1959
1662.3385,91.03
1663.3027,90.8583
1664.2670,90.6887
1665.2312,90.5224
1666.1954,90.3507
1667.1597,90.1509
1668.1239,89.9038
1669.0881,89.6296
1670.0524,89.3872
1671.0166,89.2135
1671.9808,89.0946
1672.9451,88.999
1673.9093,88.896
1674.8735,88.7532
1675.8378,88.5424
1676.8020,88.2597
1677.7662,87.938
1678.7305,87.6325
1679.6947,87.3873
1680.6589,87.2062
1681.6232,87.0457
1682.5874,86.8448
1683.5516,86.591
1684.5159,86.317
1685.4801,86.0162
1686.4443,85.6665
1687.4086,85.2874
1688.3728,84.9176
1689.3370,84.5876
1690.3013,84.3124
1691.2655,84.0895
1692.2297,83.8951
1693.1940,83.6866
1694.1582,83.4162
1695.1224,83.0622
1696.0867,82.6633
1697.0509,82.3183
1698.0151,82.1175
1698.9794,82.0487
1699.9436,81.9956
1700.9078,81.8516
1701.8721,81.6096
1702.8363,81.3408
1703.8005,81.13
1704.7648,81.0314
1705.7290,81.0538
1706.6932,81.1613
1707.6575,81.2976
1708.6217,81.4238
1709.5859,81.5366
1710.5502,81.6541
1711.5144,81.7921
1712.4786,81.9537
1713.4429,82.1378
1714.4071,82.3645
1715.3713,82.7065
1716.3356,83.2577
1717.2998,83.9757
1718.2640,84.6315
1719.2283,85.0626
1720.1925,85.3106
1721.1567,85.5022
1722.1210,85.7332
1723.0852,86.0354
1724.0494,86.3884
1725.0137,86.747
1725.9779,87.0733
1726.9421,87.3552
1727.9064,87.6047
1728.8706,87.8452
1729.8348,88.1015
1730.7991,88.4006
1731.7633,88.777
1732.7275,89.2578
1733.6918,89.7959
1734.6560,90.2513
1735.6202,90.5283
1736.5845,90.6724
1737.5487,90.796
1738.5129,90.9839
1739.4772,91.259
1740.4414,91.5872
1741.4056,91.9078
1742.3699,92.1767
1743.3341,92.3917
1744.2983,92.5803
1745.2626,92.7711
1746.2268,92.9821
1747.1910,93.23
1748.1553,93.5404
1749.1195,93.9299
1750.0837,94.3599
1751.0480,94.7381
1752.0122,94.9974
1752.9764,95.146
1753.9407,95.2391
1754.9049,95.33
1755.8691,95.4446
1756.8334,95.5816
1757.7976,95.7267
1758.7618,95.8708
1759.7261,96.0179
1760.6903,96.1776
1761.6545,96.3494
1762.6188,96.5167
1763.5830,96.6603
1764.5472,96.7758
1765.5115,96.8747
1766.4757,96.969
1767.4399,97.0601
1768.4042,97.139
1769.3684,97.2004
1770.3326,97.2605
1771.2969,97.359
1772.2611,97.5209
1773.2253,97.713
1774.1896,97.8731
1775.1538,97.9765
1776.1180,98.0472
1777.0823,98.1216
1778.0465,98.2205
1779.0107,98.3439
1779.9750,98.48
1780.9392,98.6163
1781.9034,98.7466
1782.8677,98.8688
1783.8319,98.9777
1784.7961,99.0627
1785.7604,99.1159
1786.7246,99.1415
1787.6888,99.1556
1788.6531,99.1736
1789.6173,99.1989
1790.5815,99.2267
1791.5458,99.2568
1792.5100,99.2904
1793.4742,99.3131
1794.4385,99.3093
1795.4027,99.2881
1796.3669,99.2741
1797.3312,99.2841
1798.2954,99.318
1799.2596,99.3661
1800.2239,99.4179
1801.1881,99.4649
1802.1523,99.4992
1803.1166,99.517
1804.0808,99.52
1805.0450,99.513
1806.0093,99.4993
1806.9735,99.48
1807.9377,99.4723
1808.9020,99.4775
1809.8662,99.4941
1810.8304,99.5287
1811.7947,99.5784
1812.7589,99.6335
1813.7231,99.6853
1814.6874,99.7304
1815.6516,99.7678
1816.6158,99.7968
1817.5801,99.8168
1818.5443,99.829
1819.5085,99.8379
1820.4728,99.8497
1821.4370,99.8689
1822.4012,99.8946
1823.3655,99.9207
1824.3297,99.9386
1825.2939,99.9418
1826.2582,99.9307
1827.2224,99.9143
1828.1866,99.9089
1829.1509,99.9292
1830.1151,99.9743
1831.0793,100.022
1832.0436,100.049
1833.0078,100.05
1833.9720,100.039
1834.9363,100.03
1835.9005,100.029
1836.8647,100.034
1837.8290,100.043
1838.7932,100.055
1839.7574,100.079
1840.7217,100.116
1841.6859,100.158
1842.6501,100.189
1843.6144,100.201
1844.5786,100.198
1845.5428,100.185
1846.5071,100.165
1847.4713,100.147
1848.4355,100.143
1849.3998,100.158
1850.3640,100.184
1851.3282,100.21
1852.2925,100.227
1853.2567,100.234
1854.2209,100.236
1855.1852,100.236
1856.1494,100.235
1857.1136,100.234
1858.0779,100.233
1859.0421,100.234
1860.0063,100.236
1860.9706,100.236
1861.9348,100.227
1862.8990,100.206
1863.8633,100.174
1864.8275,100.136
1865.7917,100.099
1866.7560,100.074
1867.7202,100.082
1868.6844,100.134
1869.6487,100.21
1870.6129,100.273
1871.5771,100.303
1872.5414,100.308
1873.5056,100.305
1874.4698,100.304
1875.4341,100.305
1876.3983,100.308
1877.3625,100.308
1878.3268,100.308
1879.2910,100.308
1880.2552,100.309
1881.2195,100.309
1882.1837,100.305
1883.1479,100.296
1884.1122,100.284
1885.0764,100.272
1886.0406,100.265
1887.0049,100.264
1887.9691,100.269
1888.9333,100.277
1889.8976,100.282
1890.8618,100.279
1891.8260,100.266
1892.7903,100.247
1893.7545,100.232
1894.7188,100.227
1895.6830,100.233
1896.6472,100.247
1897.6115,100.261
1898.5757,100.268
1899.5399,100.267
1900.5042,100.26
1901.4684,100.251
1902.4326,100.242
1903.3969,100.231
1904.3611,100.215
1905.3253,100.193
1906.2896,100.166
1907.2538,100.14
1908.2180,100.122
1909.1823,100.119
1910.1465,100.127
1911.1107,100.139
1912.0750,100.149
1913.0392,100.154
1914.0034,100.159
1914.9677,100.167
1915.9319,100.176
1916.8961,100.179
1917.8604,100.171
1918.8246,100.147
1919.7888,100.11
1920.7531,100.073
1921.7173,100.048
1922.6815,100.044
1923.6458,100.06
1924.6100,100.085
1925.5742,100.106
1926.5385,100.119
1927.5027,100.123
1928.4669,100.122
1929.4312,100.12
1930.3954,100.117
1931.3596,100.115
1932.3239,100.114
1933.2881,100.116
1934.2523,100.121
1935.2166,100.128
1936.1808,100.134
1937.1450,100.137
1938.1093,100.135
1939.0735,100.13
1940.0377,100.121
1941.0020,100.111
1941.9662,100.104
1942.9304,100.101
1943.8947,100.106
1944.8589,100.115
1945.8231,100.129
1946.7874,100.146
1947.7516,100.167
1948.7158,100.186
1949.6801,100.202
1950.6443,100.213
1951.6085,100.221
1952.5728,100.229
1953.5370,100.24
1954.5012,100.254
1955.4655,100.271
1956.4297,100.286
1957.3939,100.298
1958.3582,100.306
1959.3224,100.312
1960.2866,100.316
1961.2509,100.317
1962.2151,100.315
1963.1793,100.308
1964.1436,100.298
1965.1078,100.29
1966.0720,100.288
1967.0363,100.298
1968.0005,100.317
1968.9647,100.341
1969.9290,100.364
1970.8932,100.38
1971.8574,100.391
1972.8217,100.396
1973.7859,100.398
1974.7501,100.397
1975.7144,100.397
1976.6786,100.397
1977.6428,100.399
1978.6071,100.401
1979.5713,100.405
1980.5355,100.409
1981.4998,100.411
1982.4640,100.411
1983.4282,100.407
1984.3925,100.399
1985.3567,100.388
1986.3209,100.377
1987.2852,100.367
1988.2494,100.36
1989.2136,100.356
1990.1779,100.355
1991.1421,100.358
1992.1063,100.362
1993.0706,100.367
1994.0348,100.369
1994.9990,100.368
1995.9633,100.364
1996.9275,100.359
1997.8917,100.355
1998.8560,100.354
1999.8202,100.355
2000.7844,100.358
2001.7487,100.36
2002.7129,100.36
2003.6771,100.356
2004.6414,100.346
2005.6056,100.334
2006.5698,100.323
2007.5341,100.315
2008.4983,100.311
2009.4625,100.31
2010.4268,100.31
2011.3910,100.307
2012.3552,100.3
2013.3195,100.29
2014.2837,100.277
2015.2479,100.265
2016.2122,100.258
2017.1764,100.255
2018.1406,100.258
2019.1049,100.263
2020.0691,100.267
2021.0333,100.269
2021.9976,100.271
2022.9618,100.273
2023.9260,100.276
2024.8903,100.281
2025.8545,100.284
2026.8187,100.286
2027.7830,100.284
2028.7472,100.28
2029.7114,100.275
2030.6757,100.27
2031.6399,100.267
2032.6041,100.266
2033.5684,100.268
2034.5326,100.272
2035.4968,100.277
2036.4611,100.282
2037.4253,100.285
2038.3895,100.285
2039.3538,100.284
2040.3180,100.282
2041.2822,100.281
2042.2465,100.283
2043.2107,100.287
2044.1749,100.291
2045.1392,100.296
2046.1034,100.299
2047.0676,100.301
2048.0320,100.301
2048.9961,100.299
2049.9604,100.295
2050.9246,100.291
2051.8889,100.288
2052.8530,100.284
2053.8174,100.282
2054.7815,100.28
2055.7458,100.279
2056.7100,100.279
2057.6743,100.282
2058.6384,100.285
2059.6028,100.287
2060.5669,100.286
2061.5313,100.28
2062.4954,100.271
2063.4597,100.264
2064.4238,100.264
2065.3882,100.272
2066.3523,100.286
2067.3167,100.302
2068.2808,100.313
2069.2451,100.32
2070.2092,100.322
2071.1736,100.321
2072.1377,100.322
2073.1021,100.324
2074.0662,100.329
2075.0305,100.333
2075.9946,100.337
2076.9590,100.34
2077.9231,100.342
2078.8875,100.344
2079.8516,100.345
2080.8159,100.347
2081.7800,100.349
2082.7444,100.35
2083.7085,100.351
2084.6729,100.352
2085.6370,100.353
2086.6013,100.356
2087.5654,100.359
2088.5298,100.363
2089.4939,100.365
2090.4583,100.366
2091.4224,100.365
2092.3867,100.363
2093.3508,100.363
2094.3152,100.363
2095.2793,100.365
2096.2437,100.367
2097.2078,100.369
2098.1721,100.371
2099.1362,100.371
2100.1006,100.368
2101.0647,100.365
2102.0291,100.36
2102.9932,100.357
2103.9575,100.355
2104.9216,100.355
2105.8860,100.357
2106.8501,100.359
2107.8145,100.36
2108.7786,100.358
2109.7429,100.354
2110.7070,100.35
2111.6714,100.346
2112.6355,100.345
2113.5999,100.346
2114.5640,100.35
2115.5283,100.355
2116.4924,100.361
2117.4568,100.366
2118.4209,100.369
2119.3853,100.37
2120.3494,100.368
2121.3137,100.365
2122.2778,100.361
2123.2422,100.356
2124.2063,100.351
2125.1707,100.347
2126.1348,100.346
2127.0991,100.347
2128.0632,100.352
2129.0276,100.359
2129.9917,100.366
2130.9561,100.372
2131.9202,100.373
2132.8845,100.371
2133.8486,100.368
2134.8130,100.367
2135.7771,100.37
2136.7415,100.38
2137.7056,100.392
2138.6699,100.405
2139.6340,100.414
2140.5984,100.418
2141.5625,100.42
2142.5269,100.421
2143.4910,100.426
2144.4553,100.434
2145.4194,100.444
2146.3838,100.454
2147.3479,100.461
2148.3123,100.465
2149.2764,100.466
2150.2407,100.467
2151.2048,100.469
2152.1692,100.473
2153.1333,100.478
2154.0977,100.484
2155.0618,100.487
2156.0261,100.488
2156.9902,100.486
2157.9546,100.483
2158.9187,100.482
2159.8831,100.485
2160.8472,100.493
2161.8115,100.504
2162.7756,100.514
2163.7400,100.52
2164.7041,100.52
2165.6685,100.515
2166.6326,100.507
2167.5969,100.501
2168.5610,100.497
2169.5254,100.498
2170.4895,100.5
2171.4539,100.503
2172.4180,100.506
2173.3823,100.508
2174.3464,100.508
2175.3108,100.508
2176.2749,100.51
2177.2393,100.513
2178.2034,100.517
2179.1677,100.52
2180.1318,100.521
2181.0962,100.517
2182.0603,100.508
2183.0247,100.497
2183.9888,100.487
2184.9531,100.482
2185.9172,100.483
2186.8816,100.489
2187.8457,100.498
2188.8101,100.506
2189.7742,100.511
2190.7385,100.512
2191.7026,100.511
2192.6670,100.51
2193.6311,100.513
2194.5955,100.518
2195.5596,100.525
2196.5239,100.53
2197.4880,100.531
2198.4524,100.528
2199.4165,100.52
2200.3809,100.512
2201.3450,100.507
2202.3093,100.507
2203.2734,100.511
2204.2378,100.519
2205.2019,100.526
2206.1663,100.531
2207.1304,100.531
2208.0947,100.528
2209.0588,100.525
2210.0232,100.523
2210.9873,100.523
2211.9517,100.523
2212.9158,100.523
2213.8801,100.52
2214.8442,100.517
2215.8086,100.513
2216.7727,100.51
2217.7371,100.506
2218.7012,100.502
2219.6655,100.497
2220.6296,100.492
2221.5940,100.489
2222.5581,100.488
2223.5225,100.49
2224.4866,100.491
2225.4509,100.491
2226.4150,100.487
2227.3794,100.481
2228.3435,100.472
2229.3079,100.464
2230.2720,100.457
2231.2363,100.45
2232.2004,100.442
2233.1648,100.434
2234.1289,100.425
2235.0933,100.418
2236.0574,100.414
2237.0217,100.412
2237.9858,100.411
2238.9502,100.408
2239.9143,100.401
2240.8787,100.391
2241.8428,100.38
2242.8071,100.371
2243.7712,100.364
2244.7356,100.358
2245.6997,100.352
2246.6641,100.344
2247.6282,100.333
2248.5925,100.321
2249.5566,100.309
2250.5210,100.298
2251.4851,100.288
2252.4495,100.277
2253.4136,100.266
2254.3779,100.252
2255.3420,100.236
2256.3064,100.22
2257.2705,100.205
2258.2349,100.192
2259.1990,100.181
2260.1633,100.173
2261.1274,100.166
2262.0918,100.16
2263.0559,100.154
2264.0203,100.148
2264.9844,100.144
2265.9487,100.141
2266.9128,100.138
2267.8772,100.134
2268.8413,100.128
2269.8057,100.119
2270.7698,100.108
2271.7341,100.099
2272.6982,100.093
2273.6626,100.091
2274.6267,100.092
2275.5911,100.095
2276.5552,100.099
2277.5195,100.103
2278.4836,100.108
2279.4480,100.113
2280.4121,100.117
2281.3765,100.119
2282.3406,100.118
2283.3049,100.112
2284.2690,100.1
2285.2334,100.08
2286.1975,100.053
2287.1619,100.022
2288.1260,99.9875
2289.0903,99.9538
2290.0544,99.923
2291.0188,99.896
2291.9829,99.8734
2292.9473,99.8552
2293.9114,99.8414
2294.8757,99.8317
2295.8398,99.8256
2296.8042,99.8227
2297.7683,99.8237
2298.7327,99.8302
2299.6968,99.8445
2300.6611,99.8671
2301.6252,99.8957
2302.5896,99.9248
2303.5537,99.9477
2304.5181,99.9594
2305.4822,99.9592
2306.4465,99.9523
2307.4106,99.9483
2308.3750,99.9578
2309.3391,99.9873
2310.3035,100.036
2311.2676,100.095
2312.2319,100.151
2313.1960,100.195
2314.1604,100.222
2315.1245,100.238
2316.0889,100.255
2317.0530,100.282
2318.0173,100.324
2318.9814,100.371
2319.9458,100.406
2320.9099,100.402
2321.8743,100.343
2322.8384,100.225
2323.8027,100.072
2324.7668,99.9207
2325.7312,99.8107
2326.6953,99.7651
2327.6597,99.781
2328.6238,99.8291
2329.5881,99.866
2330.5522,99.8537
2331.5166,99.7777
2332.4807,99.6531
2333.4451,99.513
2334.4092,99.3908
2335.3735,99.3051
2336.3376,99.2549
2337.3020,99.2238
2338.2661,99.1903
2339.2305,99.14
2340.1946,99.0791
2341.1589,99.0444
2342.1230,99.0963
2343.0874,99.2707
2344.0515,99.5058
2345.0159,99.6564
2345.9800,99.6286
2346.9443,99.4619
2347.9084,99.2719
2348.8728,99.1594
2349.8369,99.1616
2350.8013,99.2468
2351.7654,99.3373
2352.7297,99.358
2353.6938,99.288
2354.6582,99.1651
2355.6223,99.0303
2356.5867,98.8895
2357.5508,98.738
2358.5151,98.5919
2359.4792,98.4805
2360.4436,98.4178
2361.4077,98.4006
2362.3721,98.4312
2363.3362,98.5271
2364.3005,98.7009
2365.2646,98.9372
2366.2290,99.1963
2367.1931,99.4381
2368.1575,99.6427
2369.1216,99.8121
2370.0859,99.9578
2371.0500,100.088
2372.0144,100.208
2372.9785,100.308
2373.9429,100.365
2374.9070,100.37
2375.8713,100.325
2376.8354,100.239
2377.7998,100.131
2378.7639,100.016
2379.7283,99.911
2380.6924,99.8235
2381.6567,99.7571
2382.6208,99.7111
2383.5852,99.683
2384.5493,99.6695
2385.5137,99.6676
2386.4778,99.6744
2387.4421,99.6871
2388.4063,99.7025
2389.3706,99.7171
2390.3347,99.7274
2391.2991,99.7314
2392.2632,99.7294
2393.2275,99.7244
2394.1917,99.7211
2395.1560,99.7238
2396.1201,99.7347
2397.0845,99.7524
2398.0486,99.7717
2399.0129,99.7865
2399.9771,99.7919
2400.9414,99.7868
2401.9055,99.7747
2402.8699,99.7624
2403.8340,99.7566
2404.7983,99.7607
2405.7625,99.7729
2406.7268,99.7875
2407.6909,99.7974
2408.6553,99.7989
2409.6194,99.7932
2410.5837,99.7861
2411.5479,99.7845
2412.5122,99.7926
2413.4763,99.8094
2414.4407,99.8296
2415.4048,99.8463
2416.3691,99.8552
2417.3333,99.8561
2418.2976,99.8527
2419.2617,99.8499
2420.2261,99.8511
2421.1902,99.8566
2422.1545,99.8643
2423.1187,99.8716
2424.0830,99.877
2425.0471,99.8807
2426.0115,99.884
2426.9756,99.8884
2427.9399,99.8949
2428.9041,99.9038
2429.8684,99.9152
2430.8325,99.9279
2431.7969,99.94
2432.7610,99.9485
2433.7253,99.9509
2434.6895,99.9469
2435.6538,99.9392
2436.6179,99.9328
2437.5823,99.9324
2438.5464,99.9401
2439.5107,99.9539
2440.4749,99.9694
2441.4392,99.9822
2442.4033,99.99
2443.3677,99.9936
2444.3318,99.9958
2445.2961,99.999
2446.2603,100.004
2447.2246,100.01
2448.1887,100.013
2449.1531,100.014
2450.1172,100.011
2451.0815,100.006
2452.0457,100.002
2453.0100,100.001
2453.9741,100.005
2454.9385,100.012
2455.9026,100.021
2456.8669,100.028
2457.8311,100.032
2458.7954,100.032
2459.7595,100.029
2460.7239,100.025
2461.6880,100.024
2462.6523,100.027
2463.6165,100.033
2464.5808,100.041
2465.5449,100.047
2466.5093,100.049
2467.4734,100.045
2468.4377,100.035
2469.4019,100.024
2470.3662,100.014
2471.3303,100.011
2472.2947,100.015
2473.2588,100.026
2474.2231,100.039
2475.1873,100.048
2476.1516,100.051
2477.1157,100.047
2478.0801,100.04
2479.0442,100.033
2480.0085,100.031
2480.9727,100.036
2481.9370,100.045
2482.9011,100.057
2483.8655,100.067
2484.8296,100.073
2485.7939,100.074
2486.7581,100.073
2487.7224,100.072
2488.6865,100.073
2489.6509,100.078
2490.6150,100.084
2491.5793,100.092
2492.5435,100.097
2493.5078,100.1
2494.4719,100.101
2495.4363,100.1
2496.4004,100.1
2497.3647,100.102
2498.3289,100.106
2499.2932,100.11
2500.2573,100.113
2501.2217,100.113
2502.1858,100.11
2503.1501,100.106
2504.1143,100.103
2505.0786,100.102
2506.0427,100.106
2507.0071,100.111
2507.9712,100.118
2508.9355,100.123
2509.8997,100.124
2510.8640,100.121
2511.8281,100.114
2512.7925,100.107
2513.7566,100.101
2514.7209,100.101
2515.6851,100.107
2516.6494,100.117
2517.6135,100.128
2518.5779,100.136
2519.5420,100.139
2520.5063,100.136
2521.4705,100.13
2522.4348,100.125
2523.3989,100.124
2524.3633,100.126
2525.3274,100.13
2526.2917,100.134
2527.2559,100.137
2528.2202,100.139
2529.1843,100.138
2530.1487,100.137
2531.1128,100.134
2532.0771,100.132
2533.0413,100.13
2534.0056,100.129
2534.9697,100.129
2535.9341,100.129
2536.8982,100.131
2537.8625,100.135
2538.8267,100.141
2539.7910,100.149
2540.7551,100.16
2541.7195,100.17
2542.6836,100.18
2543.6479,100.188
2544.6121,100.19
2545.5764,100.188
2546.5405,100.183
2547.5049,100.175
2548.4690,100.17
2549.4333,100.17
2550.3975,100.177
2551.3618,100.189
2552.3259,100.204
2553.2903,100.218
2554.2544,100.228
2555.2188,100.233
2556.1829,100.236
2557.1472,100.238
2558.1113,100.242
2559.0757,100.25
2560.0398,100.259
2561.0042,100.266
2561.9683,100.27
2562.9326,100.269
2563.8967,100.264
2564.8611,100.259
2565.8252,100.257
2566.7896,100.26
2567.7537,100.265
2568.7180,100.272
2569.6821,100.276
2570.6465,100.277
2571.6106,100.278
2572.5750,100.278
2573.5391,100.279
2574.5034,100.28
2575.4675,100.279
2576.4319,100.274
2577.3960,100.269
2578.3604,100.265
2579.3245,100.266
2580.2888,100.274
2581.2529,100.287
2582.2173,100.3
2583.1814,100.312
2584.1458,100.318
2585.1099,100.32
2586.0742,100.318
2587.0383,100.315
2588.0027,100.314
2588.9668,100.314
2589.9312,100.316
2590.8953,100.317
2591.8596,100.317
2592.8237,100.315
2593.7881,100.314
2594.7522,100.315
2595.7166,100.318
2596.6807,100.323
2597.6450,100.328
2598.6091,100.332
2599.5735,100.334
2600.5376,100.335
2601.5020,100.335
2602.4661,100.336
2603.4304,100.337
2604.3945,100.338
2605.3589,100.339
2606.3230,100.341
2607.2874,100.345
2608.2515,100.351
2609.2158,100.357
2610.1799,100.363
2611.1443,100.369
2612.1084,100.372
2613.0728,100.375
2614.0369,100.378
2615.0012,100.379
2615.9653,100.38
2616.9297,100.378
2617.8938,100.375
2618.8582,100.371
2619.8223,100.368
2620.7866,100.368
2621.7507,100.371
2622.7151,100.378
2623.6792,100.386
2624.6436,100.396
2625.6077,100.404
2626.5720,100.409
2627.5361,100.41
2628.5005,100.409
2629.4646,100.408
2630.4290,100.409
2631.3931,100.414
2632.3574,100.422
2633.3215,100.432
2634.2859,100.442
2635.2500,100.448
2636.2144,100.449
2637.1785,100.445
2638.1428,100.439
2639.1069,100.433
2640.0713,100.433
2641.0354,100.439
2641.9998,100.452
2642.9639,100.467
2643.9282,100.479
2644.8923,100.486
2645.8567,100.487
2646.8208,100.483
2647.7852,100.481
2648.7493,100.483
2649.7136,100.489
2650.6777,100.498
2651.6421,100.506
2652.6062,100.511
2653.5706,100.513
2654.5347,100.515
2655.4990,100.519
2656.4631,100.528
2657.4275,100.541
2658.3916,100.556
2659.3560,100.569
2660.3201,100.578
2661.2844,100.582
2662.2485,100.584
2663.2129,100.587
2664.1770,100.594
2665.1414,100.606
2666.1055,100.622
2667.0698,100.638
2668.0339,100.651
2668.9983,100.658
2669.9624,100.662
2670.9268,100.663
2671.8909,100.666
2672.8552,100.673
2673.8193,100.682
2674.7837,100.694
2675.7478,100.703
2676.7122,100.709
2677.6763,100.71
2678.6406,100.708
2679.6047,100.704
2680.5691,100.702
2681.5332,100.703
2682.4976,100.707
2683.4617,100.713
2684.4260,100.719
2685.3901,100.722
2686.3545,100.72
2687.3186,100.716
2688.2830,100.71
2689.2471,100.707
2690.2114,100.709
2691.1755,100.718
2692.1399,100.731
2693.1040,100.746
2694.0684,100.759
2695.0325,100.767
2695.9968,100.77
2696.9609,100.768
2697.9253,100.766
2698.8894,100.764
2699.8538,100.764
2700.8179,100.766
2701.7822,100.768
2702.7463,100.767
2703.7107,100.764
2704.6748,100.757
2705.6392,100.747
2706.6033,100.738
2707.5676,100.73
2708.5317,100.725
2709.4961,100.725
2710.4602,100.726
2711.4246,100.727
2712.3887,100.723
2713.3530,100.714
2714.3171,100.701
2715.2815,100.684
2716.2456,100.669
2717.2100,100.656
2718.1741,100.648
2719.1384,100.644
2720.1025,100.641
2721.0669,100.638
2722.0310,100.633
2722.9954,100.626
2723.9595,100.617
2724.9238,100.607
2725.8879,100.598
2726.8523,100.59
2727.8164,100.585
2728.7808,100.582
2729.7449,100.581
2730.7092,100.58
2731.6733,100.579
2732.6377,100.576
2733.6018,100.571
2734.5662,100.564
2735.5303,100.557
2736.4946,100.551
2737.4587,100.545
2738.4231,100.54
2739.3872,100.537
2740.3516,100.534
2741.3157,100.534
2742.2800,100.537
2743.2441,100.544
2744.2085,100.556
2745.1726,100.571
2746.1370,100.586
2747.1011,100.597
2748.0654,100.601
2749.0295,100.6
2749.9939,100.597
2750.9580,100.595
2751.9224,100.598
2752.8865,100.604
2753.8508,100.609
2754.8149,100.608
2755.7793,100.6
2756.7434,100.586
2757.7078,100.569
2758.6719,100.553
2759.6362,100.541
2760.6003,100.535
2761.5647,100.532
2762.5288,100.531
2763.4932,100.527
2764.4573,100.519
2765.4216,100.508
2766.3857,100.494
2767.3501,100.48
2768.3142,100.469
2769.2786,100.461
2770.2427,100.451
2771.2070,100.437
2772.1711,100.415
2773.1355,100.384
2774.0996,100.349
2775.0640,100.313
2776.0281,100.281
2776.9924,100.251
2777.9565,100.22
2778.9209,100.186
2779.8850,100.146
2780.8494,100.103
2781.8135,100.058
2782.7778,100.016
2783.7419,99.9784
2784.7063,99.9439
2785.6704,99.9117
2786.6348,99.8803
2787.5989,99.8484
2788.5632,99.8152
2789.5273,99.7803
2790.4917,99.744
2791.4558,99.7072
2792.4202,99.6709
2793.3843,99.6353
2794.3486,99.6001
2795.3127,99.5639
2796.2771,99.5258
2797.2412,99.4852
2798.2056,99.4421
2799.1697,99.3968
2800.1340,99.3494
2801.0981,99.3
2802.0625,99.2488
2803.0266,99.1961
2803.9910,99.1429
2804.9551,99.0895
2805.9194,99.0352
2806.8835,98.978
2807.8479,98.9151
2808.8120,98.842
2809.7764,98.76
2810.7405,98.6696
2811.7048,98.5725
2812.6689,98.4706
2813.6333,98.3655
2814.5974,98.2576
2815.5618,98.1461
2816.5259,98.0293
2817.4902,97.9046
2818.4543,97.7699
2819.4187,97.6232
2820.3828,97.4635
2821.3472,97.2906
2822.3113,97.1046
2823.2756,96.9055
2824.2397,96.6926
2825.2041,96.4647
2826.1682,96.2208
2827.1326,95.96
2828.0967,95.6823
2829.0610,95.3875
2830.0251,95.0757
2830.9895,94.7473
2831.9536,94.4032
2832.9180,94.0454
2833.8821,93.6761
2834.8464,93.2978
2835.8105,92.9121
2836.7749,92.5203
2837.7390,92.1246
2838.7034,91.7274
2839.6675,91.3303
2840.6318,90.9306
2841.5959,90.5196
2842.5603,90.0848
2843.5244,89.6159
2844.4888,89.1143
2845.4529,88.5997
2846.4172,88.1085
2847.3813,87.6833
2848.3457,87.3575
2849.3098,87.1415
2850.2742,87.0192
2851.2383,86.9557
2852.2026,86.9123
2853.1667,86.8602
2854.1311,86.7877
2855.0952,86.6972
2856.0596,86.5968
2857.0237,86.4922
2857.9880,86.3819
2858.9521,86.2594
2859.9165,86.1171
2860.8806,85.9511
2861.8450,85.7627
2862.8091,85.5575
2863.7734,85.3429
2864.7375,85.1266
2865.7019,84.9151
2866.6660,84.7138
2867.6304,84.5269
2868.5945,84.3578
2869.5588,84.2086
2870.5229,84.0799
2871.4873,83.9699
2872.4514,83.8749
2873.4158,83.7894
2874.3799,83.7073
2875.3442,83.6224
2876.3083,83.5289
2877.2727,83.4222
2878.2368,83.2993
2879.2012,83.1608
2880.1653,83.012
2881.1296,82.8633
2882.0938,82.7282
2883.0581,82.6187
2884.0222,82.5411
2884.9866,82.4932
2885.9507,82.4646
2886.9150,82.4393
2887.8792,82.4008
2888.8435,82.3376
2889.8076,82.2485
2890.7720,82.1427
2891.7361,82.0351
2892.7004,81.9358
2893.6646,81.839
2894.6289,81.7201
2895.5930,81.5453
2896.5574,81.2917
2897.5215,80.9662
2898.4858,80.6104
2899.4500,80.2865
2900.4143,80.0486
2901.3784,79.918
2902.3428,79.8744
2903.3069,79.8685
2904.2712,79.8465
2905.2354,79.7711
2906.1997,79.6299
2907.1638,79.4286
2908.1282,79.1804
2909.0923,78.8974
2910.0566,78.5897
2911.0208,78.2682
2911.9851,77.9468
2912.9492,77.6421
2913.9136,77.3699
2914.8777,77.1419
2915.8420,76.9634
2916.8062,76.8337
2917.7705,76.7466
2918.7346,76.6923
2919.6990,76.6605
2920.6631,76.6427
2921.6274,76.6341
2922.5916,76.6334
2923.5559,76.641
2924.5200,76.6582
2925.4844,76.6864
2926.4485,76.7282
2927.4128,76.7871
2928.3770,76.8665
2929.3413,76.9675
2930.3054,77.0876
2931.2698,77.2224
2932.2339,77.3678
2933.1982,77.5231
2934.1624,77.6912
2935.1267,77.8766
2936.0908,78.0813
2937.0552,78.3027
2938.0193,78.5342
2938.9836,78.7677
2939.9478,78.9977
2940.9121,79.2237
2941.8762,79.4489
2942.8406,79.6764
2943.8047,79.9051
2944.7690,80.127
2945.7332,80.3286
2946.6975,80.4959
2947.6616,80.6199
2948.6260,80.6999
2949.5901,80.7433
2950.5544,80.7617
2951.5186,80.7659
2952.4829,80.7632
2953.4470,80.7569
2954.4114,80.7479
2955.3755,80.7379
2956.3398,80.7305
2957.3040,80.7308
2958.2683,80.7428
2959.2324,80.7671
2960.1968,80.7998
2961.1609,80.8332
2962.1252,80.8596
2963.0894,80.8747
2964.0537,80.8797
2965.0178,80.8807
2965.9822,80.8863
2966.9463,80.9053
2967.9106,80.9455
2968.8748,81.0139
2969.8391,81.1172
2970.8032,81.2605
2971.7676,81.4453
2972.7317,81.6674
2973.6960,81.9183
2974.6602,82.1878
2975.6245,82.4672
2976.5886,82.7514
2977.5530,83.0383
2978.5171,83.3268
2979.4814,83.6148
2980.4456,83.8969
2981.4099,84.163
2982.3740,84.3984
2983.3384,84.5885
2984.3025,84.729
2985.2668,84.8374
2986.2310,84.9581
2987.1953,85.1525
2988.1594,85.4742
2989.1238,85.9409
2990.0879,86.52
2991.0522,87.1387
2992.0164,87.7142
2992.9807,88.1896
2993.9448,88.5539
2994.9092,88.8379
2995.8733,89.0912
2996.8376,89.3553
2997.8018,89.6485
2998.7661,89.9679
2999.7302,90.3015
3000.6946,90.6392
3001.6587,90.9783
3002.6230,91.3209
3003.5872,91.6701
3004.5515,92.0263
3005.5156,92.3875
3006.4800,92.7496
3007.4441,93.1075
3008.4084,93.4559
3009.3726,93.7914
3010.3369,94.1136
3011.3010,94.4255
3012.2654,94.7315
3013.2295,95.0339
3014.1938,95.3307
3015.1580,95.6163
3016.1223,95.8846
3017.0864,96.1328
3018.0508,96.3632
3019.0149,96.5808
3019.9792,96.7907
3020.9434,96.995
3021.9077,97.1927
3022.8718,97.3814
3023.8362,97.5592
3024.8003,97.7261
3025.7646,97.883
3026.7288,98.0313
3027.6931,98.1722
3028.6572,98.3065
3029.6216,98.4351
3030.5857,98.5585
3031.5500,98.6769
3032.5142,98.7892
3033.4785,98.894
3034.4426,98.9912
3035.4070,99.0817
3036.3711,99.1673
3037.3354,99.2488
3038.2996,99.3246
3039.2639,99.391
3040.2280,99.4441
3041.1924,99.4824
3042.1565,99.5077
3043.1208,99.5247
3044.0850,99.5387
3045.0493,99.553
3046.0134,99.5692
3046.9778,99.5869
3047.9419,99.6045
3048.9063,99.6202
3049.8704,99.6316
3050.8347,99.6111
3051.7988,99.5767
3052.7632,99.5349
3053.7273,99.4881
3054.6917,99.4409
3055.6558,99.398
3056.6201,99.3627
3057.5842,99.3346
3058.5486,99.3095
3059.5127,99.2809
3060.4771,99.2431
3061.4412,99.1941
3062.4055,99.1375
3063.3696,99.0812
3064.3340,99.0335
3065.2981,98.9982
3066.2625,98.9728
3067.2266,98.9505
3068.1909,98.9243
3069.1550,98.8917
3070.1194,98.8545
3071.0835,98.8168
3072.0479,98.7807
3073.0120,98.7446
3073.9763,98.7048
3074.9404,98.6587
3075.9048,98.6074
3076.8689,98.5553
3077.8333,98.5074
3078.7974,98.4664
3079.7617,98.4315
3080.7258,98.3995
3081.6902,98.3668
3082.6543,98.3312
3083.6187,98.2917
3084.5828,98.2482
3085.5471,98.2007
3086.5112,98.1499
3087.4756,98.097
3088.4397,98.0433
3089.4041,97.9892
3090.3682,97.9338
3091.3325,97.8753
3092.2966,97.8118
3093.2610,97.7425
3094.2251,97.668
3095.1895,97.5897
3096.1536,97.51
3097.1179,97.4313
3098.0820,97.356
3099.0464,97.2859
3100.0105,97.2216
3100.9749,97.1622
3101.9390,97.1055
3102.9033,97.0496
3103.8674,96.9935
3104.8318,96.9367
3105.7959,96.8785
3106.7603,96.8173
3107.7244,96.7507
3108.6887,96.6775
3109.6528,96.5988
3110.6172,96.5181
3111.5813,96.4393
3112.5457,96.3643
3113.5098,96.2924
3114.4741,96.2209
3115.4382,96.1477
3116.4026,96.0727
3117.3667,95.9989
3118.3311,95.9296
3119.2952,95.8671
3120.2595,95.8108
3121.2236,95.7575
3122.1880,95.7029
3123.1521,95.6435
3124.1165,95.5776
3125.0806,95.5062
3126.0449,95.4312
3127.0090,95.3544
3127.9734,95.2765
3128.9375,95.1974
3129.9019,95.1173
3130.8660,95.0377
3131.8303,94.9614
3132.7944,94.8911
3133.7588,94.8275
3134.7229,94.7682
3135.6873,94.7095
3136.6514,94.6476
3137.6157,94.5809
3138.5798,94.51
3139.5442,94.4368
3140.5083,94.3626
3141.4727,94.2875
3142.4368,94.2106
3143.4011,94.1311
3144.3652,94.0492
3145.3296,93.9662
3146.2937,93.8844
3147.2581,93.8063
3148.2222,93.7338
3149.1865,93.6673
3150.1506,93.6046
3151.1150,93.5413
3152.0791,93.4729
3153.0435,93.3962
3154.0076,93.3118
3154.9719,93.223
3155.9360,93.1344
3156.9004,93.049
3157.8645,92.9675
3158.8289,92.8883
3159.7930,92.8099
3160.7573,92.7321
3161.7214,92.6556
3162.6858,92.581
3163.6499,92.5074
3164.6143,92.4327
3165.5784,92.3547
3166.5427,92.2732
3167.5068,92.1912
3168.4712,92.1126
3169.4353,92.0724
3170.3997,92.0054
3171.3638,91.939
3172.3281,91.8669
3173.2922,91.7844
3174.2566,91.6911
3175.2207,91.591
3176.1851,91.4911
3177.1492,91.3982
3178.1135,91.3164
3179.0776,91.2455
3180.0420,91.182
3181.0061,91.122
3181.9705,91.0619
3182.9346,91.0001
3183.8989,90.9359
3184.8630,90.8685
3185.8274,90.7971
3186.7915,90.721
3187.7559,90.6403
3188.7200,90.557
3189.6843,90.4742
3190.6484,90.3952
3191.6128,90.3218
3192.5769,90.2536
3193.5413,90.1883
3194.5054,90.1227
3195.4697,90.0545
3196.4338,89.983
3197.3982,89.9096
3198.3623,89.8369
3199.3267,89.7679
3200.2908,89.7046
3201.2551,89.6472
3202.2192,89.5934
3203.1836,89.5388
3204.1477,89.4787
3205.1121,89.4102
3206.0762,89.3342
3207.0405,89.2552
3208.0046,89.179
3208.9690,89.1094
3209.9331,89.0459
3210.8975,88.9846
3211.8616,88.9216
3212.8259,88.8561
3213.7900,88.7913
3214.7544,88.7321
3215.7185,88.6809
3216.6829,88.6356
3217.6470,88.5902
3218.6113,88.5385
3219.5754,88.478
3220.5398,88.4116
3221.5039,88.345
3222.4683,88.2834
3223.4324,88.2288
3224.3967,88.1792
3225.3608,88.131
3226.3252,88.0816
3227.2893,88.0307
3228.2537,87.9802
3229.2178,87.9322
3230.1821,87.8872
3231.1462,87.8432
3232.1106,87.7973
3233.0747,87.7466
3234.0391,87.6904
3235.0032,87.6308
3235.9675,87.5711
3236.9316,87.5153
3237.8960,87.4655
3238.8601,87.4217
3239.8245,87.3817
3240.7886,87.3427
3241.7529,87.3023
3242.7170,87.2594
3243.6814,87.2145
3244.6455,87.1688
3245.6099,87.1238
3246.5740,87.08
3247.5383,87.0372
3248.5024,86.9948
3249.4668,86.9518
3250.4309,86.907
3251.3953,86.8595
3252.3594,86.8091
3253.3237,86.7571
3254.2878,86.7062
3255.2522,86.6605
3256.2163,86.6234
3257.1807,86.5955
3258.1448,86.5735
3259.1091,86.5506
3260.0732,86.5199
3261.0376,86.4773
3262.0017,86.4244
3262.9661,86.3674
3263.9302,86.3143
3264.8945,86.2706
3265.8586,86.2366
3266.8230,86.2071
3267.7871,86.1742
3268.7515,86.1311
3269.7156,86.0759
3270.6799,86.0126
3271.6440,85.9496
3272.6084,85.8965
3273.5725,85.8595
3274.5369,85.8382
3275.5010,85.8262
3276.4653,85.8141
3277.4294,85.7943
3278.3938,85.7643
3279.3579,85.7278
3280.3223,85.6913
3281.2864,85.6605
3282.2507,85.6365
3283.2148,85.6152
3284.1792,85.5897
3285.1433,85.5533
3286.1077,85.5036
3287.0718,85.4435
3288.0361,85.3799
3289.0002,85.321
3289.9646,85.2736
3290.9287,85.24
3291.8931,85.2178
3292.8572,85.2013
3293.8215,85.1837
3294.7856,85.1593
3295.7500,85.1257
3296.7141,85.0842
3297.6785,85.039
3298.6426,84.9961
3299.6069,84.9605
3300.5710,84.9339
3301.5354,84.9134
3302.4995,84.893
3303.4639,84.8663
3304.4280,84.8302
3305.3923,84.7875
3306.3564,84.7453
3307.3208,84.7111
3308.2849,84.6893
3309.2493,84.6781
3310.2134,84.672
3311.1777,84.6645
3312.1418,84.6521
3313.1062,84.6344
3314.0703,84.6129
3315.0347,84.5889
3315.9988,84.5618
3316.9631,84.5307
3317.9272,84.4951
3318.8916,84.4559
3319.8557,84.4153
3320.8201,84.3756
3321.7842,84.3389
3322.7485,84.3071
3323.7126,84.2823
3324.6770,84.266
3325.6411,84.2579
3326.6055,84.2544
3327.5696,84.2499
3328.5339,84.2383
3329.4980,84.2165
3330.4624,84.1856
3331.4265,84.1513
3332.3909,84.1201
3333.3550,84.0977
3334.3193,84.0856
3335.2834,84.0814
3336.2478,84.0799
3337.2119,84.0753
3338.1763,84.0637
3339.1404,84.0446
3340.1047,84.0206
3341.0688,83.9956
3342.0332,83.9722
3342.9973,83.9507
3343.9617,83.9287
3344.9258,83.9039
3345.8901,83.8763
3346.8542,83.8498
3347.8186,83.8307
3348.7827,83.8241
3349.7471,83.831
3350.7112,83.8463
3351.6755,83.8609
3352.6396,83.865
3353.6040,83.853
3354.5681,83.8254
3355.5325,83.7885
3356.4966,83.7521
3357.4609,83.7245
3358.4250,83.7097
3359.3894,83.7057
3360.3535,83.7062
3361.3179,83.7048
3362.2820,83.6976
3363.2463,83.6861
3364.2104,83.6751
3365.1748,83.6698
3366.1389,83.6729
3367.1033,83.683
3368.0674,83.6957
3369.0317,83.7065
3369.9958,83.7125
3370.9602,83.7129
3371.9243,83.7084
3372.8887,83.7002
3373.8528,83.6897
3374.8171,83.6794
3375.7813,83.6721
3376.7456,83.671
3377.7097,83.677
3378.6741,83.688
3379.6382,83.6993
3380.6025,83.7056
3381.5667,83.7048
3382.5310,83.6988
3383.4951,83.6925
3384.4595,83.6912
3385.4236,83.6972
3386.3879,83.7088
3387.3521,83.7228
3388.3164,83.7371
3389.2805,83.7523
3390.2449,83.7711
3391.2090,83.7952
3392.1733,83.8244
3393.1375,83.8561
3394.1018,83.8874
3395.0659,83.9167
3396.0303,83.9438
3396.9944,83.9681
3397.9587,83.9878
3398.9229,84.001
3399.8872,84.0076
3400.8513,84.0107
3401.8157,84.0154
3402.7798,84.0271
3403.7441,84.0488
3404.7083,84.0804
3405.6726,84.1201
3406.6367,84.1651
3407.6011,84.2123
3408.5652,84.2572
3409.5295,84.2951
3410.4937,84.3216
3411.4580,84.3359
3412.4221,84.3415
3413.3865,84.3456
3414.3506,84.3552
3415.3149,84.3745
3416.2791,84.4031
3417.2434,84.4379
3418.2075,84.4759
3419.1719,84.5166
3420.1360,84.5613
3421.1003,84.6115
3422.0645,84.6661
3423.0288,84.7213
3423.9929,84.7724
3424.9573,84.8169
3425.9214,84.8561
3426.8857,84.8955
3427.8499,84.942
3428.8142,85.0006
3429.7783,85.0711
3430.7427,85.1479
3431.7068,85.2223
3432.6711,85.2869
3433.6353,85.3382
3434.5996,85.3774
3435.5637,85.4085
3436.5281,85.4367
3437.4922,85.4664
3438.4565,85.5005
3439.4207,85.54
3440.3850,85.5841
3441.3491,85.6297
3442.3135,85.6731
3443.2776,85.7128
3444.2419,85.7513
3445.2061,85.7958
3446.1704,85.855
3447.1345,85.9336
3448.0989,86.0286
3449.0630,86.1301
3450.0273,86.2267
3450.9915,86.3098
3451.9558,86.3756
3452.9199,86.4252
3453.8843,86.4634
3454.8484,86.4971
3455.8127,86.5336
3456.7769,86.5777
3457.7412,86.6306
3458.7053,86.69
3459.6697,86.7513
3460.6338,86.8106
3461.5981,86.8669
3462.5623,86.9228
3463.5266,86.9838
3464.4907,87.0547
3465.4551,87.1372
3466.4192,87.2279
3467.3835,87.3192
3468.3477,87.4021
3469.3120,87.4712
3470.2761,87.5272
3471.2405,87.5774
3472.2046,87.6322
3473.1689,87.6995
3474.1331,87.7795
3475.0974,87.8637
3476.0615,87.9395
3477.0259,87.998
3477.9900,88.0397
3478.9543,88.0751
3479.9185,88.1196
3480.8828,88.1846
3481.8469,88.2706
3482.8113,88.3669
3483.7754,88.4595
3484.7397,88.5402
3485.7039,88.6107
3486.6682,88.6799
3487.6323,88.7572
3488.5967,88.8456
3489.5608,88.9395
3490.5251,89.029
3491.4893,89.1059
3492.4536,89.1692
3493.4177,89.2249
3494.3821,89.2822
3495.3462,89.3472
3496.3105,89.4191
3497.2747,89.4912
3498.2390,89.5574
3499.2031,89.6173
3500.1675,89.678
3501.1316,89.7511
3502.0959,89.8455
3503.0601,89.9595
3504.0244,90.0809
3504.9885,90.1957
3505.9529,90.2978
3506.9170,90.3897
3507.8813,90.4775
3508.8455,90.5655
3509.8098,90.654
3510.7739,90.7408
3511.7383,90.8254
3512.7024,90.9111
3513.6667,91.0034
3514.6309,91.1047
3515.5952,91.2107
3516.5593,91.3123
3517.5237,91.4002
3518.4878,91.4714
3519.4521,91.5311
3520.4163,91.5893
3521.3806,91.6561
3522.3447,91.7356
3523.3091,91.825
3524.2732,91.918
3525.2375,92.0111
3526.2017,92.1072
3527.1660,92.2126
3528.1301,92.3306
3529.0945,92.4565
3530.0586,92.5792
3531.0229,92.6901
3531.9871,92.7879
3532.9514,92.8795
3533.9155,92.9748
3534.8799,93.0814
3535.8440,93.1996
3536.8083,93.321
3537.7725,93.4328
3538.7368,93.5258
3539.7009,93.5991
3540.6653,93.6612
3541.6294,93.7259
3542.5938,93.8097
3543.5579,93.9264
3544.5222,94.0789
3545.4863,94.2515
3546.4507,94.4151
3547.4148,94.5469
3548.3792,94.6468
3549.3433,94.7353
3550.3076,94.8397
3551.2717,94.9789
3552.2361,95.1521
3553.2002,95.3384
3554.1646,95.51
3555.1287,95.6503
3556.0930,95.7607
3557.0571,95.8543
3558.0215,95.9446
3558.9856,96.0371
3559.9500,96.1284
3560.9141,96.2105
3561.8784,96.278
3562.8425,96.3326
3563.8069,96.3846
3564.7710,96.4586
3565.7354,96.5945
3566.6995,96.8144
3567.6638,97.0766
3568.6279,97.3023
3569.5923,97.4521
3570.5564,97.5416
3571.5208,97.6049
3572.4849,97.6658
3573.4492,97.7323
3574.4133,97.8043
3575.3777,97.8808
3576.3418,97.963
3577.3062,98.0514
3578.2703,98.1426
3579.2346,98.2283
3580.1987,98.2995
3581.1631,98.3527
3582.1272,98.3932
3583.0916,98.4308
3584.0557,98.4743
3585.0200,98.5318
3585.9841,98.6158
3586.9485,98.7321
3587.9126,98.8544
3588.8770,98.9363
3589.8411,98.9591
3590.8054,98.9429
3591.7695,98.9191
3592.7339,98.9083
3593.6980,98.9169
3594.6624,98.9405
3595.6265,98.9686
3596.5908,98.9939
3597.5549,99.0208
3598.5193,99.0637
3599.4834,99.1345
3600.4478,99.2307
3601.4119,99.3342
3602.3762,99.4262
3603.3403,99.5004
3604.3047,99.5633
3605.2688,99.6255
3606.2332,99.6956
3607.1973,99.776
3608.1616,99.8577
3609.1257,99.9212
3610.0901,99.9491
3611.0542,99.9407
3612.0186,99.9117
3612.9829,99.8837
3613.9470,99.8734
3614.9114,99.8867
3615.8755,99.9213
3616.8398,99.9714
3617.8040,100.033
3618.7683,100.098
3619.7324,100.146
3620.6968,100.149
3621.6609,100.101
3622.6252,100.024
3623.5894,99.9683
3624.5537,99.9675
3625.5178,100.018
3626.4822,100.091
3627.4463,100.167
3628.4106,100.238
3629.3748,100.278
3630.3391,100.243
3631.3032,100.144
3632.2676,100.034
3633.2317,99.9591
3634.1960,99.9311
3635.1602,99.9343
3636.1245,99.9431
3637.0886,99.9382
3638.0530,99.9133
3639.0171,99.8704
3639.9814,99.8124
3640.9456,99.7423
3641.9099,99.6659
3642.8740,99.5936
3643.8384,99.5334
3644.8025,99.4775
3645.7668,99.394
3646.7310,99.2527
3647.6953,99.1016
3648.6594,99.0787
3649.6238,99.2021
3650.5879,99.308
3651.5522,99.3007
3652.5164,99.2156
3653.4807,99.1118
3654.4448,99.0165
3655.4092,98.9304
3656.3733,98.8487
3657.3376,98.7703
3658.3018,98.699
3659.2661,98.6434
3660.2302,98.6114
3661.1946,98.6016
3662.1587,98.6036
3663.1230,98.6082
3664.0872,98.6165
3665.0515,98.6355
3666.0156,98.6651
3666.9800,98.6881
3667.9441,98.6819
3668.9084,98.644
3669.8726,98.5918
3670.8369,98.5367
3671.8010,98.4794
3672.7654,98.423
3673.7295,98.3823
3674.6938,98.3941
3675.6580,98.492
3676.6223,98.6406
3677.5864,98.7584
3678.5508,98.8092
3679.5149,98.8093
3680.4792,98.783
3681.4434,98.7421
3682.4077,98.695
3683.3718,98.6556
3684.3362,98.6382
3685.3003,98.6419
3686.2646,98.6436
3687.2288,98.6173
3688.1931,98.5786
3689.1572,98.5879
3690.1216,98.6686
3691.0857,98.7747
3692.0500,98.8617
3693.0142,98.925
3693.9785,98.9788
3694.9426,99.0355
3695.9070,99.1023
3696.8711,99.1828
3697.8354,99.2782
3698.7996,99.3857
3699.7639,99.4999
3700.7280,99.6134
3701.6924,99.716
3702.6565,99.7939
3703.6208,99.8391
3704.5850,99.8575
3705.5493,99.8643
3706.5134,99.8693
3707.4778,99.8701
3708.4419,99.8653
3709.4063,99.8837
3710.3704,99.9828
3711.3347,100.171
3712.2988,100.361
3713.2632,100.46
3714.2273,100.457
3715.1917,100.395
3716.1558,100.32
3717.1201,100.253
3718.0842,100.193
3719.0486,100.134
3720.0127,100.07
3720.9771,100.005
3721.9412,99.9485
3722.9055,99.9112
3723.8696,99.901
3724.8340,99.9198
3725.7981,99.9781
3726.7625,100.034
3727.7266,100.083
3728.6909,100.126
3729.6550,100.165
3730.6194,100.186
3731.5835,100.17
3732.5479,100.112
3733.5120,100.059
3734.4763,100.083
3735.4404,100.194
3736.4048,100.306
3737.3689,100.35
3738.3333,100.347
3739.2974,100.371
3740.2617,100.474
3741.2258,100.652
3742.1902,100.839
3743.1543,100.939
3744.1187,100.893
3745.0828,100.721
3746.0471,100.497
3747.0112,100.299
3747.9756,100.171
3748.9397,100.129
3749.9041,100.184
3750.8682,100.312
3751.8325,100.42
3752.7966,100.42
3753.7610,100.324
3754.7251,100.2
3755.6895,100.105
3756.6536,100.06
3757.6179,100.069
3758.5820,100.122
3759.5464,100.19
3760.5105,100.244
3761.4749,100.268
3762.4390,100.266
3763.4033,100.252
3764.3674,100.235
3765.3318,100.222
3766.2959,100.218
3767.2603,100.227
3768.2244,100.253
3769.1887,100.294
3770.1528,100.339
3771.1172,100.37
3772.0813,100.374
3773.0457,100.352
3774.0098,100.32
3774.9741,100.29
3775.9382,100.266
3776.9026,100.248
3777.8667,100.236
3778.8311,100.233
3779.7952,100.229
3780.7595,100.213
3781.7236,100.18
3782.6880,100.142
3783.6521,100.114
3784.6165,100.111
3785.5806,100.137
3786.5449,100.182
3787.5090,100.229
3788.4734,100.266
3789.4375,100.291
3790.4019,100.307
3791.3660,100.316
3792.3303,100.315
3793.2944,100.294
3794.2588,100.247
3795.2229,100.18
3796.1873,100.113
3797.1514,100.067
3798.1157,100.046
3799.0798,100.038
3800.0442,100.034
3801.0083,100.03
3801.9727,100.029
3802.9368,100.036
3803.9011,100.059
3804.8652,100.11
3805.8296,100.185
3806.7937,100.26
3807.7581,100.298
3808.7222,100.281
3809.6865,100.23
3810.6506,100.192
3811.6150,100.198
3812.5791,100.24
3813.5435,100.276
3814.5076,100.262
3815.4719,100.191
3816.4360,100.092
3817.4004,100.004
3818.3645,99.9561
3819.3289,99.9601
3820.2930,100.005
3821.2573,100.055
3822.2214,100.063
3823.1858,100.018
3824.1499,99.9493
3825.1143,99.9007
3826.0784,99.8962
3827.0427,99.9329
3828.0068,99.9889
3828.9712,100.039
3829.9353,100.068
3830.8997,100.077
3831.8638,100.079
3832.8281,100.083
3833.7922,100.091
3834.7566,100.089
3835.7207,100.059
3836.6851,99.9961
3837.6492,99.922
3838.6135,99.8724
3839.5776,99.8671
3840.5420,99.9024
3841.5061,99.9647
3842.4705,100.037
3843.4346,100.095
3844.3989,100.113
3845.3630,100.083
3846.3274,100.021
3847.2915,99.9708
3848.2559,99.9771
3849.2200,100.064
3850.1843,100.217
3851.1484,100.39
3852.1128,100.544
3853.0769,100.667
3854.0413,100.698
3855.0054,100.574
3855.9697,100.348
3856.9338,100.135
3857.8982,100.007
3858.8623,99.9732
3859.8267,99.9941
3860.7908,100.015
3861.7551,100.003
3862.7192,99.9661
3863.6836,99.9448
3864.6477,99.9649
3865.6121,100.022
3866.5762,100.092
3867.5405,100.148
3868.5046,100.172
3869.4690,100.162
3870.4331,100.135
3871.3975,100.107
3872.3616,100.083
3873.3259,100.062
3874.2900,100.045
3875.2544,100.039
3876.2185,100.049
3877.1829,100.071
3878.1470,100.09
3879.1113,100.095
3880.0754,100.085
3881.0398,100.074
3882.0039,100.078
3882.9683,100.106
3883.9324,100.151
3884.8967,100.195
3885.8608,100.216
3886.8252,100.202
3887.7893,100.162
3888.7537,100.112
3889.7178,100.066
3890.6821,100.037
3891.6462,100.028
3892.6106,100.033
3893.5747,100.038
3894.5391,100.042
3895.5032,100.054
3896.4675,100.073
3897.4316,100.086
3898.3960,100.078
3899.3601,100.051
3900.3245,100.018
3901.2886,99.9938
3902.2529,99.9843
3903.2170,99.9908
3904.1814,100.006
3905.1455,100.019
3906.1099,100.021
3907.0740,100.02
3908.0383,100.021
3909.0024,100.029
3909.9668,100.037
3910.9309,100.041
3911.8953,100.04
3912.8594,100.035
3913.8237,100.033
3914.7878,100.037
3915.7522,100.047
3916.7163,100.061
3917.6807,100.07
3918.6448,100.063
3919.6091,100.035
3920.5732,99.9938
3921.5376,99.955
3922.5017,99.9318
3923.4661,99.9282
3924.4302,99.9356
3925.3945,99.9379
3926.3586,99.9228
3927.3230,99.8914
3928.2871,99.8559
3929.2515,99.8322
3930.2156,99.8337
3931.1799,99.865
3932.1440,99.9165
3933.1084,99.9689
3934.0725,100.006
3935.0369,100.026
3936.0010,100.032
3936.9653,100.03
3937.9294,100.019
3938.8938,99.9954
3939.8579,99.9613
3940.8223,99.926
3941.7864,99.9041
3942.7507,99.9048
3943.7148,99.9241
3944.6792,99.9477
3945.6433,99.961
3946.6077,99.9569
3947.5718,99.9383
3948.5361,99.9167
3949.5002,99.9048
3950.4646,99.9079
3951.4287,99.923
3952.3931,99.943
3953.3572,99.9617
3954.3215,99.9753
3955.2856,99.9817
3956.2500,99.9805
3957.2141,99.9727
3958.1785,99.9603
3959.1426,99.9473
3960.1069,99.9385
3961.0710,99.9377
3962.0354,99.9456
3962.9995,99.9584
3963.9639,99.9701
3964.9280,99.9755
3965.8923,99.973
3966.8564,99.964
3967.8208,99.9516
3968.7849,99.9386
3969.7493,99.9262
3970.7134,99.9148
3971.6777,99.9049
3972.6418,99.8987
3973.6062,99.8988
3974.5703,99.9066
3975.5347,99.9201
3976.4988,99.9344
3977.4631,99.943
3978.4272,99.9417
3979.3916,99.9296
3980.3557,99.9106
3981.3201,99.8908
3982.2842,99.8763
3983.2485,99.8703
3984.2126,99.872
3985.1770,99.8784
3986.1411,99.885
3987.1055,99.8878
3988.0696,99.8833
3989.0339,99.8688
3989.9980,99.8439
3990.9624,99.8124
3991.9265,99.7816
3992.8909,99.7608
3993.8550,99.7562
3994.8193,99.7675
3995.7834,99.7872
3996.7478,99.8058
3997.7119,99.8148
3998.6763,99.8129
3999.6404,99.8055
4000.6047,99.6801

##### Extended Information
[Comments]
Sample name
Comment
User
Division
Company,HANKYONG

[Detailed Information]
Creation date,4/24/2024 10:45 AM

Data array type,Linear data array
Horizontal axis,Wavenumber [cm-1]
Vertical axis,%T
Start,649.893 cm-1
End,4000.6 cm-1
Data interval,0.964233 cm-1
Data points,3476    

[Measurement Information]
Model Name,FT/IR-4700typeA
Serial Number,D056761788

Accessory,ATR PRO ONE
Accessory S/N,C174761809
Incident angle,45 deg

Measurement Date,4/24/2024 10:45 AM

Light Source,Standard
Detector,TGS
Accumulation,32
Resolution,4 cm-1
Zero Filling,On
Apodization,Cosine
Gain,Auto (4)
Aperture,Auto (7.1 mm)
Scanning Speed,Auto (2 mm/sec)
Filter,Auto (30000 Hz)

