TITLE,
DATA TYPE,INFRARED SPECTRUM
ORIGIN,JASCO
OWNER,
DATE,24/04/24
TIME,11:22:42
SPECTROMETER/DATA SYSTEM,
LOCALE,1033
RESOLUTION,
DELTAX,0.964233
XUNITS,1/CM
YUNITS,TRANSMITTANCE
FIRSTX,  649.8934
LASTX, 4000.6047
NPOINTS,    3476
FIRSTY,    99.04916
MAXY,   101.37540
MINY,    64.21650
XYDATA
649.8934,99.0492
650.8576,98.8914
651.8218,98.7979
652.7861,98.7475
653.7503,98.7031
654.7145,98.639
655.6788,98.5447
656.6430,98.4206
657.6072,98.2751
658.5715,98.1264
659.5357,98.0031
660.4999,97.9338
661.4642,97.924
662.4284,97.9416
663.3926,97.9247
664.3569,97.7987
665.3211,97.4869
666.2853,96.9316
667.2496,96.1806
668.2138,95.5106
669.1780,95.2721
670.1423,95.4653
671.1065,95.8083
672.0707,96.0877
673.0350,96.2296
673.9992,96.2339
674.9634,96.1321
675.9277,95.9727
676.8919,95.8082
677.8561,95.68
678.8204,95.6109
679.7846,95.6086
680.7488,95.6696
681.7131,95.7798
682.6773,95.9167
683.6415,96.0573
684.6058,96.1874
685.5700,96.3018
686.5342,96.3981
687.4985,96.4683
688.4627,96.4992
689.4269,96.4788
690.3912,96.4077
691.3554,96.3092
692.3196,96.235
693.2839,96.2475
694.2481,96.368
695.2123,96.5453
696.1766,96.6994
697.1408,96.7794
698.1050,96.7778
699.0693,96.7177
700.0335,96.6319
700.9977,96.5461
701.9620,96.4706
702.9262,96.403
703.8904,96.338
704.8547,96.2744
705.8189,96.2145
706.7831,96.1574
707.7474,96.0947
708.7116,96.0111
709.6758,95.8919
710.6401,95.7288
711.6043,95.5217
712.5685,95.2738
713.5328,94.9871
714.4970,94.6614
715.4612,94.4231
716.4255,94.0363
717.3897,93.676
718.3539,93.4022
719.3182,93.2711
720.2824,93.3049
721.2466,93.4722
722.2109,93.6983
723.1751,93.9004
724.1393,94.0213
725.1036,94.0425
726.0678,93.9793
727.0320,93.8651
727.9963,93.7355
728.9605,93.6158
729.9247,93.5172
730.8890,93.4372
731.8532,93.3638
732.8174,93.2774
733.7817,93.1539
734.7459,92.9685
735.7101,92.7002
736.6744,92.3376
737.6386,91.8813
738.6028,91.3453
739.5671,90.7563
740.5313,90.1505
741.4955,89.5683
742.4598,89.0481
743.4240,88.6187
744.3882,88.2936
745.3525,88.07
746.3167,87.9319
747.2809,87.8573
748.2452,87.8251
749.2094,87.8197
750.1736,87.832
751.1379,87.8573
752.1021,87.8931
753.0663,87.937
754.0306,87.9864
754.9948,88.0384
755.9590,88.0891
756.9233,88.1333
757.8875,88.1638
758.8517,88.1734
759.8160,88.1576
760.7802,88.1186
761.7444,88.066
762.7087,88.0159
763.6729,87.9863
764.6371,87.9933
765.6014,88.0475
766.5656,88.153
767.5298,88.3081
768.4941,88.5055
769.4583,88.7323
770.4225,88.9708
771.3868,89.2007
772.3510,89.4016
773.3152,89.5574
774.2795,89.6581
775.2437,89.701
776.2079,89.6893
777.1722,89.6306
778.1364,89.5353
779.1006,89.4148
780.0649,89.2794
781.0291,89.1366
781.9933,88.9899
782.9576,88.8391
783.9218,88.6827
784.8860,88.5195
785.8503,88.3511
786.8145,88.182
787.7787,88.0186
788.7430,87.8672
789.7072,87.7323
790.6714,87.6155
791.6357,87.5154
792.5999,87.4275
793.5641,87.3456
794.5284,87.2629
795.4926,87.1729
796.4568,87.0704
797.4211,86.9504
798.3853,86.8089
799.3495,86.6424
800.3138,86.4494
801.2780,86.2313
802.2422,85.9931
803.2065,85.7425
804.1707,85.488
805.1349,85.2366
806.0992,84.9925
807.0634,84.7581
808.0276,84.534
808.9919,84.3196
809.9561,84.114
810.9203,83.9155
811.8846,83.7238
812.8488,83.5412
813.8130,83.3735
814.7773,83.2284
815.7415,83.113
816.7057,83.0308
817.6700,82.9811
818.6342,82.9601
819.5984,82.9626
820.5627,82.9832
821.5269,83.016
822.4911,83.0547
823.4554,83.0933
824.4196,83.1283
825.3839,83.1596
826.3481,83.1896
827.3123,83.2209
828.2766,83.2533
829.2408,83.2827
830.2050,83.3028
831.1693,83.3074
832.1335,83.2923
833.0977,83.2553
834.0620,83.1954
835.0262,83.1113
835.9904,83.0022
836.9547,82.868
837.9189,82.7102
838.8831,82.5314
839.8474,82.3351
840.8116,82.1242
841.7758,81.9021
842.7401,81.6726
843.7043,81.4402
844.6685,81.2098
845.6328,80.9851
846.5970,80.7681
847.5612,80.5599
848.5255,80.3621
849.4897,80.1785
850.4539,80.0154
851.4182,79.8785
852.3824,79.77
853.3466,79.6862
854.3109,79.619
855.2751,79.5601
856.2393,79.506
857.2036,79.4601
858.1678,79.4299
859.1320,79.4229
860.0963,79.4416
861.0605,79.4834
862.0247,79.5435
862.9890,79.6186
863.9532,79.7092
864.9174,79.8176
865.8817,79.9449
866.8459,80.0881
867.8101,80.2404
868.7744,80.3948
869.7386,80.5464
870.7028,80.6935
871.6671,80.8343
872.6313,80.9636
873.5955,81.071
874.5598,81.1433
875.5240,81.171
876.4882,81.1534
877.4525,81.1015
878.4167,81.034
879.3809,80.971
880.3452,80.9273
881.3094,80.9096
882.2736,80.9172
883.2379,80.9453
884.2021,80.9883
885.1663,81.041
886.1306,81.1003
887.0948,81.1663
888.0590,81.2442
889.0233,81.3436
889.9875,81.4764
890.9517,81.652
891.9160,81.8734
892.8802,82.1365
893.8444,82.4324
894.8087,82.7511
895.7729,83.0844
896.7371,83.4255
897.7014,83.7677
898.6656,84.1035
899.6298,84.4259
900.5941,84.7298
901.5583,85.0134
902.5225,85.2772
903.4868,85.5223
904.4510,85.7479
905.4152,85.9513
906.3795,86.1287
907.3437,86.2764
908.3079,86.3929
909.2722,86.4797
910.2364,86.5421
911.2006,86.5894
912.1649,86.6328
913.1291,86.6834
914.0933,86.7493
915.0576,86.8341
916.0218,86.9371
916.9860,87.055
917.9503,87.184
918.9145,87.3216
919.8787,87.4673
920.8430,87.6223
921.8072,87.7892
922.7714,87.9709
923.7357,88.1693
924.6999,88.384
925.6641,88.6123
926.6284,88.8498
927.5926,89.0945
928.5568,89.3497
929.5211,89.6266
930.4853,89.9438
931.4495,90.3242
932.4138,90.7891
933.3780,91.3537
934.3422,92.0218
935.3065,92.7828
936.2707,93.6111
937.2349,94.4693
938.1992,95.3143
939.1634,96.1071
940.1276,96.8209
941.0919,97.4452
942.0561,97.9838
943.0203,98.4691
943.9846,98.9411
944.9488,99.3475
945.9130,99.6853
946.8773,99.9526
947.8415,100.155
948.8057,100.304
949.7700,100.418
950.7342,100.51
951.6984,100.585
952.6627,100.644
953.6269,100.679
954.5911,100.689
955.5554,100.671
956.5196,100.626
957.4838,100.556
958.4481,100.456
959.4123,100.323
960.3765,100.156
961.3408,99.9558
962.3050,99.7301
963.2692,99.4898
964.2335,99.2462
965.1977,99.0092
966.1619,98.7862
967.1262,98.5828
968.0904,98.4035
969.0546,98.2512
970.0189,98.1266
970.9831,98.0269
971.9473,97.9463
972.9116,97.8772
973.8758,97.8126
974.8400,97.7477
975.8043,97.6799
976.7685,97.6072
977.7327,97.5273
978.6970,97.4364
979.6612,97.3304
980.6254,97.2055
981.5897,97.0598
982.5539,96.892
983.5181,96.7016
984.4824,96.488
985.4466,96.2524
986.4108,95.9993
987.3751,95.7374
988.3393,95.4784
989.3035,95.2346
990.2678,95.0159
991.2320,94.8275
992.1962,94.6706
993.1605,94.5429
994.1247,94.44
995.0889,94.3562
996.0532,94.2844
997.0174,94.2172
997.9816,94.1475
998.9459,94.0692
999.9101,93.9776
1000.8743,93.8679
1001.8386,93.733
1002.8028,93.5627
1003.7670,93.3435
1004.7313,93.0608
1005.6955,92.7025
1006.6597,92.2618
1007.6240,91.7378
1008.5882,91.1344
1009.5524,90.457
1010.5167,89.7113
1011.4809,88.9019
1012.4451,88.0338
1013.4094,87.1117
1014.3736,86.1393
1015.3378,85.1178
1016.3021,84.0472
1017.2663,82.9292
1018.2305,81.7716
1019.1948,80.586
1020.1590,79.3826
1021.1232,78.1618
1022.0875,76.9135
1023.0517,75.6263
1024.0160,74.3042
1024.9802,72.9782
1025.9445,71.7033
1026.9087,70.5389
1027.8729,69.523
1028.8372,68.657
1029.8014,67.909
1030.7656,67.2344
1031.7299,66.6001
1032.6941,65.9992
1033.6583,65.4492
1034.6226,64.9795
1035.5868,64.6162
1036.5510,64.3723
1037.5153,64.2446
1038.4795,64.2165
1039.4437,64.2625
1040.4080,64.3552
1041.3722,64.4716
1042.3364,64.5983
1043.3007,64.7324
1044.2649,64.8783
1045.2291,65.0427
1046.1934,65.2312
1047.1576,65.4494
1048.1218,65.7053
1049.0861,66.01
1050.0503,66.3734
1051.0145,66.7974
1051.9788,67.2716
1052.9430,67.7781
1053.9072,68.3025
1054.8715,68.8463
1055.8357,69.429
1056.7999,70.0756
1057.7642,70.7923
1058.7284,71.5452
1059.6926,72.258
1060.6569,72.8342
1061.6211,73.1986
1062.5853,73.3363
1063.5496,73.3051
1064.5138,73.2128
1065.4780,73.1675
1066.4423,73.2269
1067.4065,73.3745
1068.3707,73.5332
1069.3350,73.6086
1070.2992,73.5333
1071.2634,73.2913
1072.2277,72.912
1073.1919,72.4453
1074.1561,71.9353
1075.1204,71.408
1076.0846,70.8746
1077.0488,70.3426
1078.0131,69.8234
1078.9773,69.3324
1079.9415,68.8838
1080.9058,68.4852
1081.8700,68.1369
1082.8342,67.8348
1083.7985,67.5764
1084.7627,67.3658
1085.7269,67.2149
1086.6912,67.142
1087.6554,67.1647
1088.6196,67.2911
1089.5839,67.512
1090.5481,67.7993
1091.5123,68.1124
1092.4766,68.4115
1093.4408,68.6702
1094.4050,68.8832
1095.3693,69.0649
1096.3335,69.2404
1097.2977,69.4347
1098.2620,69.6655
1099.2262,69.9392
1100.1904,70.2535
1101.1547,70.6003
1102.1189,70.9702
1103.0831,71.3557
1104.0474,71.7539
1105.0116,72.1674
1105.9758,72.6037
1106.9401,73.0733
1107.9043,73.5867
1108.8685,74.1525
1109.8328,74.7759
1110.7970,75.4589
1111.7612,76.2007
1112.7255,76.998
1113.6897,77.8453
1114.6539,78.7358
1115.6182,79.6631
1116.5824,80.6234
1117.5466,81.6166
1118.5109,82.6464
1119.4751,83.7179
1120.4393,84.8341
1121.4036,85.993
1122.3678,87.1862
1123.3320,88.4002
1124.2963,89.6184
1125.2605,90.8241
1126.2247,92.0013
1127.1890,93.1363
1128.1532,94.2161
1129.1174,95.228
1130.0817,96.1587
1131.0459,96.9946
1132.0101,97.7226
1132.9744,98.3325
1133.9386,98.8188
1134.9028,99.1813
1135.8671,99.4234
1136.8313,99.5494
1137.7955,99.5611
1138.7598,99.4584
1139.7240,99.241
1140.6882,98.9133
1141.6525,98.4874
1142.6167,97.9704
1143.5809,97.3506
1144.5452,96.7093
1145.5094,96.0743
1146.4736,95.4702
1147.4379,94.9177
1148.4021,94.4335
1149.3663,94.03
1150.3306,93.7143
1151.2948,93.4875
1152.2590,93.3435
1153.2233,93.2692
1154.1875,93.2441
1155.1517,93.2431
1156.1160,93.2393
1157.0802,93.2082
1158.0444,93.1306
1159.0087,92.9941
1159.9729,92.7928
1160.9371,92.5256
1161.9014,92.1953
1162.8656,91.8079
1163.8298,91.3727
1164.7941,90.9014
1165.7583,90.4066
1166.7225,89.9
1167.6868,89.3909
1168.6510,88.8858
1169.6152,88.389
1170.5795,87.9037
1171.5437,87.4318
1172.5079,86.974
1173.4722,86.5284
1174.4364,86.0912
1175.4006,85.657
1176.3649,85.2214
1177.3291,84.7814
1178.2933,84.3365
1179.2576,83.8864
1180.2218,83.4294
1181.1860,82.9624
1182.1503,82.4821
1183.1145,81.9875
1184.0787,81.4821
1185.0430,80.973
1186.0072,80.4683
1186.9714,79.9736
1187.9357,79.4894
1188.8999,79.0118
1189.8641,78.5349
1190.8284,78.0537
1191.7926,77.5666
1192.7568,77.0758
1193.7211,76.5866
1194.6853,76.1063
1195.6495,75.642
1196.6138,75.1988
1197.5780,74.7787
1198.5422,74.3811
1199.5065,74.042
1200.4707,73.6788
1201.4349,73.3347
1202.3992,73.0125
1203.3634,72.7156
1204.3276,72.4463
1205.2919,72.205
1206.2561,71.991
1207.2203,71.8038
1208.1846,71.6439
1209.1488,71.5131
1210.1130,71.4134
1211.0773,71.3456
1212.0415,71.3088
1213.0057,71.3004
1213.9700,71.3172
1214.9342,71.3564
1215.8984,71.416
1216.8627,71.4953
1217.8269,71.5927
1218.7911,71.7055
1219.7554,71.8291
1220.7196,71.9584
1221.6838,72.0887
1222.6481,72.2166
1223.6123,72.3397
1224.5765,72.4558
1225.5408,72.5619
1226.5050,72.6524
1227.4692,72.7198
1228.4335,72.755
1229.3977,72.7504
1230.3619,72.7048
1231.3262,72.6283
1232.2904,72.5449
1233.2546,72.488
1234.2189,72.4909
1235.1831,72.5747
1236.1473,72.7421
1237.1116,72.98
1238.0758,73.2711
1239.0400,73.6055
1240.0043,73.9838
1240.9685,74.4096
1241.9327,74.8746
1242.8970,75.3498
1243.8612,75.7891
1244.8254,76.1462
1245.7897,76.394
1246.7539,76.534
1247.7181,76.5911
1248.6824,76.5976
1249.6466,76.5781
1250.6108,76.5415
1251.5751,76.4838
1252.5393,76.3961
1253.5035,76.2722
1254.4678,76.1122
1255.4320,75.9221
1256.3962,75.7122
1257.3605,75.4963
1258.3247,75.2906
1259.2889,75.112
1260.2532,74.9745
1261.2174,74.8859
1262.1816,74.8464
1263.1459,74.8504
1264.1101,74.8896
1265.0743,74.9555
1266.0386,75.0407
1267.0028,75.1382
1267.9670,75.2418
1268.9313,75.3464
1269.8955,75.4499
1270.8597,75.5537
1271.8240,75.6629
1272.7882,75.784
1273.7524,75.923
1274.7167,76.0834
1275.6809,76.265
1276.6451,76.4649
1277.6094,76.6785
1278.5736,76.9007
1279.5378,77.1273
1280.5021,77.3549
1281.4663,77.5811
1282.4305,77.8043
1283.3948,78.0243
1284.3590,78.2424
1285.3232,78.4611
1286.2875,78.6843
1287.2517,78.9155
1288.2159,79.1566
1289.1802,79.407
1290.1444,79.6635
1291.1086,79.9218
1292.0729,80.179
1293.0371,80.4348
1294.0013,80.6912
1294.9656,80.9515
1295.9298,81.2176
1296.8940,81.4881
1297.8583,81.7584
1298.8225,82.0217
1299.7867,82.271
1300.7510,82.501
1301.7152,82.7085
1302.6794,82.894
1303.6437,83.0608
1304.6079,83.2133
1305.5721,83.3548
1306.5364,83.4855
1307.5006,83.6033
1308.4648,83.7057
1309.4291,83.7924
1310.3933,83.8671
1311.3575,83.9358
1312.3218,84.0034
1313.2860,84.0715
1314.2502,84.1385
1315.2145,84.2025
1316.1787,84.265
1317.1429,84.3311
1318.1072,84.4065
1319.0714,84.4922
1320.0356,84.5819
1320.9999,84.6645
1321.9641,84.7301
1322.9283,84.7753
1323.8926,84.8029
1324.8568,84.8199
1325.8210,84.8339
1326.7853,84.851
1327.7495,84.8755
1328.7137,84.91
1329.6780,84.9563
1330.6422,85.0137
1331.6064,85.0774
1332.5707,85.1376
1333.5349,85.1813
1334.4991,85.1972
1335.4634,85.1829
1336.4276,85.1495
1337.3918,85.1253
1338.3561,85.1472
1339.3203,85.2369
1340.2845,85.3779
1341.2488,85.5238
1342.2130,85.6312
1343.1772,85.6804
1344.1415,85.6741
1345.1057,85.6255
1346.0699,85.5508
1347.0342,85.4644
1347.9984,85.3758
1348.9626,85.2876
1349.9269,85.1964
1350.8911,85.0973
1351.8553,84.9887
1352.8196,84.8752
1353.7838,84.7667
1354.7480,84.6724
1355.7123,84.594
1356.6765,84.5245
1357.6407,84.4524
1358.6050,84.3707
1359.5692,84.2835
1360.5334,84.2105
1361.4977,84.1819
1362.4619,84.2169
1363.4261,84.3002
1364.3904,84.394
1365.3546,84.4703
1366.3188,84.5249
1367.2831,84.5658
1368.2473,84.5984
1369.2115,84.6192
1370.1758,84.62
1371.1400,84.5966
1372.1042,84.5564
1373.0685,84.5209
1374.0327,84.5151
1374.9969,84.549
1375.9612,84.6084
1376.9254,84.673
1377.8896,84.7379
1378.8539,84.816
1379.8181,84.924
1380.7823,85.0675
1381.7466,85.2387
1382.7108,85.4276
1383.6750,85.636
1384.6393,85.8814
1385.6035,86.1831
1386.5677,86.5321
1387.5320,86.8644
1388.4962,87.0851
1389.4604,87.1369
1390.4247,87.0335
1391.3889,86.8331
1392.3531,86.6076
1393.3174,86.4304
1394.2816,86.3646
1395.2458,86.4326
1396.2101,86.5882
1397.1743,86.7371
1398.1385,86.7965
1399.1028,86.7357
1400.0670,86.5719
1401.0313,86.3427
1401.9955,86.0849
1402.9597,85.8266
1403.9240,85.5892
1404.8882,85.3888
1405.8524,85.2313
1406.8167,85.1093
1407.7809,85.0107
1408.7451,84.9311
1409.7094,84.8737
1410.6736,84.8398
1411.6378,84.8207
1412.6021,84.7999
1413.5663,84.7648
1414.5305,84.7142
1415.4948,84.6525
1416.4590,84.5829
1417.4232,84.509
1418.3875,84.4335
1419.3517,84.3387
1420.3159,84.1885
1421.2802,83.9696
1422.2444,83.7059
1423.2086,83.4332
1424.1729,83.1762
1425.1371,82.9428
1426.1013,82.7281
1427.0656,82.5213
1428.0298,82.3137
1428.9940,82.1048
1429.9583,81.9045
1430.9225,81.7265
1431.8867,81.5805
1432.8510,81.4669
1433.8152,81.3738
1434.7794,81.278
1435.7437,81.1573
1436.7079,81.0006
1437.6721,80.7974
1438.6364,80.5396
1439.6006,80.2396
1440.5648,79.927
1441.5291,79.6254
1442.4933,79.3421
1443.4575,79.0714
1444.4218,78.8027
1445.3860,78.5272
1446.3502,78.2426
1447.3145,77.953
1448.2787,77.6644
1449.2429,77.3795
1450.2072,77.1017
1451.1714,76.8436
1452.1356,76.6255
1453.0999,76.4589
1454.0641,76.3298
1455.0283,76.2066
1455.9926,76.1017
1456.9568,76.1104
1457.9210,76.2306
1458.8853,76.2864
1459.8495,76.2077
1460.8137,76.0834
1461.7780,76.0297
1462.7422,76.1412
1463.7064,76.4906
1464.6707,77.0904
1465.6349,77.8346
1466.5991,78.5579
1467.5634,79.1806
1468.5276,79.7399
1469.4918,80.3198
1470.4561,80.9992
1471.4203,81.8413
1472.3845,82.8622
1473.3488,83.9398
1474.3130,84.8344
1475.2772,85.4002
1476.2415,85.6684
1477.2057,85.741
1478.1699,85.7092
1479.1342,85.6451
1480.0984,85.6124
1481.0626,85.6619
1482.0269,85.8137
1482.9911,86.0474
1483.9553,86.3167
1484.9196,86.5725
1485.8838,86.7777
1486.8480,86.9159
1487.8123,87.0095
1488.7765,87.1187
1489.7407,87.2656
1490.7050,87.3812
1491.6692,87.3965
1492.6334,87.3138
1493.5977,87.1636
1494.5619,86.9519
1495.5261,86.6534
1496.4904,86.2478
1497.4546,85.759
1498.4188,85.2393
1499.3831,84.7264
1500.3473,84.2536
1501.3115,83.8667
1502.2758,83.603
1503.2400,83.4571
1504.2042,83.3542
1505.1685,83.1607
1506.1327,82.8175
1507.0969,82.5261
1508.0612,82.451
1509.0254,82.4064
1509.9896,82.2544
1510.9539,82.0317
1511.9181,81.8093
1512.8823,81.6445
1513.8466,81.5977
1514.8108,81.739
1515.7750,82.1195
1516.7393,82.733
1517.7035,83.534
1518.6677,84.5077
1519.6320,85.6998
1520.5962,87.1334
1521.5604,88.6844
1522.5247,90.1154
1523.4889,91.2815
1524.4531,92.2327
1525.4174,93.1042
1526.3816,93.963
1527.3458,94.7655
1528.3101,95.4358
1529.2743,95.9528
1530.2385,96.3638
1531.2028,96.7479
1532.1670,97.1709
1533.1312,97.6377
1534.0955,98.079
1535.0597,98.4266
1536.0239,98.6835
1536.9882,98.8825
1537.9524,98.9997
1538.9166,98.9472
1539.8809,98.7394
1540.8451,98.6667
1541.8093,98.9148
1542.7736,99.2697
1543.7378,99.5439
1544.7020,99.7163
1545.6663,99.8036
1546.6305,99.8389
1547.5947,99.8144
1548.5590,99.7558
1549.5232,99.6846
1550.4874,99.6044
1551.4517,99.5046
1552.4159,99.3818
1553.3801,99.2588
1554.3444,99.1741
1555.3086,99.1438
1556.2728,99.1302
1557.2371,99.088
1558.2013,99.0971
1559.1655,99.2006
1560.1298,99.1159
1561.0940,98.7067
1562.0582,98.1451
1563.0225,97.6158
1563.9867,97.201
1564.9509,96.9004
1565.9152,96.6671
1566.8794,96.4354
1567.8436,96.1527
1568.8079,95.81
1569.7721,95.4392
1570.7363,95.0785
1571.7006,94.7505
1572.6648,94.4531
1573.6290,94.1435
1574.5933,93.7489
1575.5575,93.2352
1576.5217,92.6723
1577.4860,92.1541
1578.4502,91.6884
1579.4144,91.24
1580.3787,90.7875
1581.3429,90.3181
1582.3071,89.8211
1583.2714,89.295
1584.2356,88.7492
1585.1998,88.1936
1586.1641,87.6305
1587.1283,87.0585
1588.0925,86.4809
1589.0568,85.9071
1590.0210,85.3474
1590.9852,84.808
1591.9495,84.293
1592.9137,83.8121
1593.8779,83.3822
1594.8422,83.0205
1595.8064,82.7316
1596.7706,82.5036
1597.7349,82.3157
1598.6991,82.1512
1599.6633,82.0039
1600.6276,81.8784
1601.5918,81.7834
1602.5560,81.7235
1603.5203,81.6936
1604.4845,81.6823
1605.4487,81.6819
1606.4130,81.6973
1607.3772,81.7461
1608.3414,81.8459
1609.3057,81.9954
1610.2699,82.1694
1611.2341,82.3424
1612.1984,82.5139
1613.1626,82.7098
1614.1268,82.9728
1615.0911,83.3545
1616.0553,83.8752
1617.0195,84.4433
1617.9838,84.8965
1618.9480,85.1773
1619.9122,85.3691
1620.8765,85.5905
1621.8407,85.9157
1622.8049,86.3491
1623.7692,86.8308
1624.7334,87.2828
1625.6976,87.6763
1626.6619,88.0418
1627.6261,88.4145
1628.5903,88.7889
1629.5546,89.1323
1630.5188,89.4297
1631.4830,89.7004
1632.4473,89.9688
1633.4115,90.2353
1634.3757,90.4949
1635.3400,90.7834
1636.3042,91.1184
1637.2684,91.4014
1638.2327,91.5488
1639.1969,91.5976
1640.1611,91.6267
1641.1254,91.6866
1642.0896,91.7884
1643.0538,91.9059
1644.0181,91.9792
1644.9823,91.9493
1645.9465,91.835
1646.9108,91.7462
1647.8750,91.7604
1648.8392,91.8832
1649.8035,92.1084
1650.7677,92.3979
1651.7319,92.6487
1652.6962,92.7759
1653.6604,92.7837
1654.6246,92.6092
1655.5889,92.2232
1656.5531,91.7707
1657.5173,91.4017
1658.4816,91.167
1659.4458,91.0311
1660.4100,90.921
1661.3743,90.7823
1662.3385,90.6115
1663.3027,90.4307
1664.2670,90.2561
1665.2312,90.0938
1666.1954,89.935
1667.1597,89.7473
1668.1239,89.498
1669.0881,89.2052
1670.0524,88.9423
1671.0166,88.7608
1671.9808,88.6514
1672.9451,88.5807
1673.9093,88.511
1674.8735,88.3932
1675.8378,88.1788
1676.8020,87.855
1677.7662,87.4695
1678.7305,87.1082
1679.6947,86.8422
1680.6589,86.6845
1681.6232,86.5775
1682.5874,86.435
1683.5516,86.2262
1684.5159,85.9706
1685.4801,85.6436
1686.4443,85.2296
1687.4086,84.7803
1688.3728,84.363
1689.3370,84.0188
1690.3013,83.7591
1691.2655,83.571
1692.2297,83.4184
1693.1940,83.2451
1694.1582,82.9906
1695.1224,82.628
1696.0867,82.2094
1697.0509,81.8659
1698.0151,81.7157
1698.9794,81.7358
1699.9436,81.7574
1700.9078,81.6256
1701.8721,81.3297
1702.8363,80.9761
1703.8005,80.6909
1704.7648,80.5556
1705.7290,80.5838
1706.6932,80.7242
1707.6575,80.8959
1708.6217,81.044
1709.5859,81.1649
1710.5502,81.2856
1711.5144,81.4298
1712.4786,81.6027
1713.4429,81.7996
1714.4071,82.0391
1715.3713,82.4076
1716.3356,83.0317
1717.2998,83.8741
1718.2640,84.6458
1719.2283,85.1281
1720.1925,85.3699
1721.1567,85.5372
1722.1210,85.7575
1723.0852,86.0748
1724.0494,86.4631
1725.0137,86.8628
1725.9779,87.2217
1726.9421,87.5215
1727.9064,87.7792
1728.8706,88.0306
1729.8348,88.3128
1730.7991,88.6585
1731.7633,89.1005
1732.7275,89.6576
1733.6918,90.264
1734.6560,90.749
1735.6202,91.0039
1736.5845,91.096
1737.5487,91.1716
1738.5129,91.3343
1739.4772,91.6049
1740.4414,91.9345
1741.4056,92.2464
1742.3699,92.4894
1743.3341,92.6655
1744.2983,92.813
1745.2626,92.9708
1746.2268,93.1637
1747.1910,93.4132
1748.1553,93.7519
1749.1195,94.2016
1750.0837,94.7121
1751.0480,95.1609
1752.0122,95.457
1752.9764,95.6093
1753.9407,95.6893
1754.9049,95.7656
1755.8691,95.8721
1756.8334,96.0092
1757.7976,96.1619
1758.7618,96.3194
1759.7261,96.4837
1760.6903,96.662
1761.6545,96.8502
1762.6188,97.0281
1763.5830,97.1755
1764.5472,97.2915
1765.5115,97.393
1766.4757,97.4957
1767.4399,97.5994
1768.4042,97.69
1769.3684,97.7571
1770.3326,97.817
1771.2969,97.917
1772.2611,98.0886
1773.2253,98.2916
1774.1896,98.4505
1775.1538,98.5393
1776.1180,98.5936
1777.0823,98.6614
1778.0465,98.7667
1779.0107,98.9055
1779.9750,99.0606
1780.9392,99.2172
1781.9034,99.3686
1782.8677,99.5117
1783.8319,99.638
1784.7961,99.7321
1785.7604,99.7843
1786.7246,99.8034
1787.6888,99.8134
1788.6531,99.8343
1789.6173,99.866
1790.5815,99.8952
1791.5458,99.9189
1792.5100,99.9424
1793.4742,99.953
1794.4385,99.9333
1795.4027,99.8969
1796.3669,99.8771
1797.3312,99.8946
1798.2954,99.9465
1799.2596,100.017
1800.2239,100.092
1801.1881,100.16
1802.1523,100.211
1803.1166,100.24
1804.0808,100.247
1805.0450,100.238
1806.0093,100.22
1806.9735,100.195
1807.9377,100.167
1808.9020,100.145
1809.8662,100.141
1810.8304,100.162
1811.7947,100.203
1812.7589,100.247
1813.7231,100.286
1814.6874,100.316
1815.6516,100.337
1816.6158,100.349
1817.5801,100.35
1818.5443,100.339
1819.5085,100.324
1820.4728,100.312
1821.4370,100.31
1822.4012,100.316
1823.3655,100.322
1824.3297,100.315
1825.2939,100.288
1826.2582,100.24
1827.2224,100.185
1828.1866,100.146
1829.1509,100.144
1830.1151,100.179
1831.0793,100.218
1832.0436,100.227
1833.0078,100.199
1833.9720,100.153
1834.9363,100.108
1835.9005,100.074
1836.8647,100.049
1837.8290,100.031
1838.7932,100.023
1839.7574,100.036
1840.7217,100.073
1841.6859,100.117
1842.6501,100.143
1843.6144,100.136
1844.5786,100.1
1845.5428,100.045
1846.5071,99.9806
1847.4713,99.9224
1848.4355,99.889
1849.3998,99.8848
1850.3640,99.9066
1851.3282,99.944
1852.2925,99.9681
1853.2567,99.9779
1854.2209,99.9782
1855.1852,99.9741
1856.1494,99.9676
1857.1136,99.9595
1858.0779,99.9525
1859.0421,99.9507
1860.0063,99.9547
1860.9706,99.9591
1861.9348,99.9539
1862.8990,99.9322
1863.8633,99.8934
1864.8275,99.8422
1865.7917,99.7867
1866.7560,99.7446
1867.7202,99.7465
1868.6844,99.8122
1869.6487,99.9156
1870.6129,100.003
1871.5771,100.047
1872.5414,100.056
1873.5056,100.054
1874.4698,100.056
1875.4341,100.062
1876.3983,100.069
1877.3625,100.074
1878.3268,100.076
1879.2910,100.078
1880.2552,100.078
1881.2195,100.076
1882.1837,100.067
1883.1479,100.053
1884.1122,100.036
1885.0764,100.023
1886.0406,100.019
1887.0049,100.024
1887.9691,100.037
1888.9333,100.052
1889.8976,100.06
1890.8618,100.055
1891.8260,100.036
1892.7903,100.011
1893.7545,99.9926
1894.7188,99.9894
1895.6830,100.004
1896.6472,100.03
1897.6115,100.057
1898.5757,100.074
1899.5399,100.08
1900.5042,100.075
1901.4684,100.063
1902.4326,100.049
1903.3969,100.031
1904.3611,100.008
1905.3253,99.9781
1906.2896,99.9436
1907.2538,99.9121
1908.2180,99.8934
1909.1823,99.8945
1910.1465,99.9131
1911.1107,99.9384
1912.0750,99.9606
1913.0392,99.9777
1914.0034,99.994
1914.9677,100.012
1915.9319,100.029
1916.8961,100.037
1917.8604,100.026
1918.8246,99.9909
1919.7888,99.9371
1920.7531,99.8812
1921.7173,99.844
1922.6815,99.8397
1923.6458,99.867
1924.6100,99.9105
1925.5742,99.9512
1926.5385,99.9781
1927.5027,99.9906
1928.4669,99.9935
1929.4312,99.9919
1930.3954,99.9888
1931.3596,99.9859
1932.3239,99.9846
1933.2881,99.9866
1934.2523,99.9923
1935.2166,99.9999
1936.1808,100.006
1937.1450,100.006
1938.1093,100
1939.0735,99.988
1940.0377,99.9698
1941.0020,99.9491
1941.9662,99.9324
1942.9304,99.9258
1943.8947,99.9307
1944.8589,99.944
1945.8231,99.9632
1946.7874,99.9878
1947.7516,100.016
1948.7158,100.043
1949.6801,100.064
1950.6443,100.075
1951.6085,100.079
1952.5728,100.08
1953.5370,100.084
1954.5012,100.093
1955.4655,100.106
1956.4297,100.121
1957.3939,100.136
1958.3582,100.148
1959.3224,100.158
1960.2866,100.163
1961.2509,100.164
1962.2151,100.156
1963.1793,100.142
1964.1436,100.123
1965.1078,100.108
1966.0720,100.105
1967.0363,100.12
1968.0005,100.151
1968.9647,100.188
1969.9290,100.22
1970.8932,100.242
1971.8574,100.253
1972.8217,100.256
1973.7859,100.255
1974.7501,100.253
1975.7144,100.251
1976.6786,100.251
1977.6428,100.252
1978.6071,100.255
1979.5713,100.259
1980.5355,100.263
1981.4998,100.267
1982.4640,100.269
1983.4282,100.268
1984.3925,100.261
1985.3567,100.25
1986.3209,100.234
1987.2852,100.218
1988.2494,100.202
1989.2136,100.191
1990.1779,100.186
1991.1421,100.19
1992.1063,100.2
1993.0706,100.215
1994.0348,100.228
1994.9990,100.236
1995.9633,100.238
1996.9275,100.237
1997.8917,100.234
1998.8560,100.232
1999.8202,100.231
2000.7844,100.233
2001.7487,100.235
2002.7129,100.235
2003.6771,100.232
2004.6414,100.224
2005.6056,100.214
2006.5698,100.203
2007.5341,100.195
2008.4983,100.193
2009.4625,100.195
2010.4268,100.198
2011.3910,100.198
2012.3552,100.191
2013.3195,100.177
2014.2837,100.158
2015.2479,100.137
2016.2122,100.123
2017.1764,100.118
2018.1406,100.125
2019.1049,100.138
2020.0691,100.151
2021.0333,100.162
2021.9976,100.168
2022.9618,100.171
2023.9260,100.172
2024.8903,100.174
2025.8545,100.175
2026.8187,100.177
2027.7830,100.177
2028.7472,100.177
2029.7114,100.175
2030.6757,100.174
2031.6399,100.174
2032.6041,100.175
2033.5684,100.177
2034.5326,100.18
2035.4968,100.182
2036.4611,100.181
2037.4253,100.176
2038.3895,100.168
2039.3538,100.158
2040.3180,100.15
2041.2822,100.147
2042.2465,100.151
2043.2107,100.16
2044.1749,100.171
2045.1392,100.181
2046.1034,100.188
2047.0676,100.191
2048.0320,100.191
2048.9961,100.188
2049.9604,100.185
2050.9246,100.181
2051.8889,100.179
2052.8530,100.179
2053.8174,100.181
2054.7815,100.184
2055.7458,100.187
2056.7100,100.189
2057.6743,100.189
2058.6384,100.186
2059.6028,100.179
2060.5669,100.171
2061.5313,100.161
2062.4954,100.153
2063.4597,100.149
2064.4238,100.153
2065.3882,100.163
2066.3523,100.177
2067.3167,100.192
2068.2808,100.204
2069.2451,100.212
2070.2092,100.218
2071.1736,100.222
2072.1377,100.227
2073.1021,100.232
2074.0662,100.238
2075.0305,100.244
2075.9946,100.247
2076.9590,100.248
2077.9231,100.248
2078.8875,100.246
2079.8516,100.245
2080.8159,100.245
2081.7800,100.247
2082.7444,100.25
2083.7085,100.254
2084.6729,100.258
2085.6370,100.262
2086.6013,100.265
2087.5654,100.268
2088.5298,100.27
2089.4939,100.272
2090.4583,100.273
2091.4224,100.275
2092.3867,100.278
2093.3508,100.282
2094.3152,100.287
2095.2793,100.292
2096.2437,100.298
2097.2078,100.303
2098.1721,100.307
2099.1362,100.311
2100.1006,100.311
2101.0647,100.312
2102.0291,100.312
2102.9932,100.311
2103.9575,100.311
2104.9216,100.313
2105.8860,100.315
2106.8501,100.316
2107.8145,100.315
2108.7786,100.311
2109.7429,100.306
2110.7070,100.3
2111.6714,100.295
2112.6355,100.292
2113.5999,100.292
2114.5640,100.294
2115.5283,100.298
2116.4924,100.302
2117.4568,100.306
2118.4209,100.308
2119.3853,100.309
2120.3494,100.308
2121.3137,100.306
2122.2778,100.304
2123.2422,100.302
2124.2063,100.301
2125.1707,100.301
2126.1348,100.303
2127.0991,100.307
2128.0632,100.312
2129.0276,100.32
2129.9917,100.327
2130.9561,100.333
2131.9202,100.335
2132.8845,100.333
2133.8486,100.328
2134.8130,100.322
2135.7771,100.32
2136.7415,100.323
2137.7056,100.332
2138.6699,100.345
2139.6340,100.358
2140.5984,100.37
2141.5625,100.377
2142.5269,100.382
2143.4910,100.384
2144.4553,100.387
2145.4194,100.391
2146.3838,100.397
2147.3479,100.404
2148.3123,100.41
2149.2764,100.415
2150.2407,100.418
2151.2048,100.419
2152.1692,100.42
2153.1333,100.422
2154.0977,100.423
2155.0618,100.426
2156.0261,100.43
2156.9902,100.434
2157.9546,100.438
2158.9187,100.441
2159.8831,100.445
2160.8472,100.45
2161.8115,100.457
2162.7756,100.465
2163.7400,100.474
2164.7041,100.479
2165.6685,100.481
2166.6326,100.479
2167.5969,100.474
2168.5610,100.469
2169.5254,100.467
2170.4895,100.469
2171.4539,100.473
2172.4180,100.478
2173.3823,100.481
2174.3464,100.482
2175.3108,100.481
2176.2749,100.479
2177.2393,100.478
2178.2034,100.479
2179.1677,100.48
2180.1318,100.48
2181.0962,100.479
2182.0603,100.475
2183.0247,100.471
2183.9888,100.467
2184.9531,100.465
2185.9172,100.466
2186.8816,100.47
2187.8457,100.477
2188.8101,100.484
2189.7742,100.491
2190.7385,100.497
2191.7026,100.502
2192.6670,100.505
2193.6311,100.508
2194.5955,100.51
2195.5596,100.511
2196.5239,100.513
2197.4880,100.513
2198.4524,100.512
2199.4165,100.511
2200.3809,100.508
2201.3450,100.506
2202.3093,100.505
2203.2734,100.505
2204.2378,100.504
2205.2019,100.503
2206.1663,100.502
2207.1304,100.501
2208.0947,100.502
2209.0588,100.505
2210.0232,100.509
2210.9873,100.513
2211.9517,100.514
2212.9158,100.513
2213.8801,100.51
2214.8442,100.508
2215.8086,100.507
2216.7727,100.507
2217.7371,100.508
2218.7012,100.507
2219.6655,100.503
2220.6296,100.498
2221.5940,100.494
2222.5581,100.491
2223.5225,100.491
2224.4866,100.494
2225.4509,100.498
2226.4150,100.5
2227.3794,100.499
2228.3435,100.492
2229.3079,100.481
2230.2720,100.467
2231.2363,100.452
2232.2004,100.438
2233.1648,100.428
2234.1289,100.422
2235.0933,100.42
2236.0574,100.421
2237.0217,100.421
2237.9858,100.42
2238.9502,100.414
2239.9143,100.406
2240.8787,100.396
2241.8428,100.385
2242.8071,100.376
2243.7712,100.367
2244.7356,100.359
2245.6997,100.35
2246.6641,100.341
2247.6282,100.33
2248.5925,100.319
2249.5566,100.308
2250.5210,100.295
2251.4851,100.281
2252.4495,100.265
2253.4136,100.248
2254.3779,100.23
2255.3420,100.212
2256.3064,100.196
2257.2705,100.181
2258.2349,100.169
2259.1990,100.157
2260.1633,100.146
2261.1274,100.134
2262.0918,100.123
2263.0559,100.112
2264.0203,100.103
2264.9844,100.095
2265.9487,100.088
2266.9128,100.081
2267.8772,100.073
2268.8413,100.064
2269.8057,100.054
2270.7698,100.046
2271.7341,100.04
2272.6982,100.037
2273.6626,100.037
2274.6267,100.04
2275.5911,100.045
2276.5552,100.052
2277.5195,100.063
2278.4836,100.075
2279.4480,100.088
2280.4121,100.098
2281.3765,100.105
2282.3406,100.105
2283.3049,100.095
2284.2690,100.076
2285.2334,100.046
2286.1975,100.006
2287.1619,99.961
2288.1260,99.9142
2289.0903,99.8686
2290.0544,99.825
2291.0188,99.7833
2291.9829,99.7436
2292.9473,99.7078
2293.9114,99.6791
2294.8757,99.6601
2295.8398,99.651
2296.8042,99.6499
2297.7683,99.6551
2298.7327,99.6671
2299.6968,99.6891
2300.6611,99.7248
2301.6252,99.7738
2302.5896,99.8295
2303.5537,99.8801
2304.5181,99.9138
2305.4822,99.9251
2306.4465,99.919
2307.4106,99.9104
2308.3750,99.9185
2309.3391,99.9574
2310.3035,100.03
2311.2676,100.125
2312.2319,100.225
2313.1960,100.313
2314.1604,100.382
2315.1245,100.435
2316.0889,100.486
2317.0530,100.545
2318.0173,100.617
2318.9814,100.692
2319.9458,100.746
2320.9099,100.744
2321.8743,100.654
2322.8384,100.468
2323.8027,100.211
2324.7668,99.9407
2325.7312,99.7205
2326.6953,99.5993
2327.6597,99.5892
2328.6238,99.6598
2329.5881,99.7488
2330.5522,99.7884
2331.5166,99.7371
2332.4807,99.5984
2333.4451,99.4144
2334.4092,99.2391
2335.3735,99.1105
2336.3376,99.0359
2337.3020,98.9929
2338.2661,98.945
2339.2305,98.8641
2340.1946,98.7554
2341.1589,98.6861
2342.1230,98.75
2343.0874,99.0092
2344.0515,99.3774
2345.0159,99.629
2345.9800,99.6146
2346.9443,99.3944
2347.9084,99.1489
2348.8728,99.0322
2349.8369,99.0946
2350.8013,99.2746
2351.7654,99.4383
2352.7297,99.4622
2353.6938,99.3237
2354.6582,99.102
2355.6223,98.8729
2356.5867,98.6393
2357.5508,98.3864
2358.5151,98.1509
2359.4792,98.0022
2360.4436,97.9726
2361.4077,98.0373
2362.3721,98.1628
2363.3362,98.3495
2364.3005,98.618
2365.2646,98.9705
2366.2290,99.3755
2367.1931,99.7862
2368.1575,100.166
2369.1216,100.496
2370.0859,100.774
2371.0500,101.003
2372.0144,101.183
2372.9785,101.31
2373.9429,101.375
2374.9070,101.373
2375.8713,101.3
2376.8354,101.165
2377.7998,100.988
2378.7639,100.794
2379.7283,100.607
2380.6924,100.447
2381.6567,100.327
2382.6208,100.249
2383.5852,100.209
2384.5493,100.197
2385.5137,100.202
2386.4778,100.216
2387.4421,100.231
2388.4063,100.244
2389.3706,100.254
2390.3347,100.262
2391.2991,100.267
2392.2632,100.271
2393.2275,100.274
2394.1917,100.277
2395.1560,100.282
2396.1201,100.289
2397.0845,100.298
2398.0486,100.308
2399.0129,100.316
2399.9771,100.321
2400.9414,100.32
2401.9055,100.315
2402.8699,100.307
2403.8340,100.299
2404.7983,100.296
2405.7625,100.298
2406.7268,100.306
2407.6909,100.316
2408.6553,100.323
2409.6194,100.327
2410.5837,100.327
2411.5479,100.328
2412.5122,100.331
2413.4763,100.337
2414.4407,100.345
2415.4048,100.353
2416.3691,100.356
2417.3333,100.357
2418.2976,100.356
2419.2617,100.356
2420.2261,100.357
2421.1902,100.359
2422.1545,100.361
2423.1187,100.363
2424.0830,100.367
2425.0471,100.374
2426.0115,100.384
2426.9756,100.394
2427.9399,100.403
2428.9041,100.41
2429.8684,100.413
2430.8325,100.416
2431.7969,100.418
2432.7610,100.422
2433.7253,100.425
2434.6895,100.425
2435.6538,100.423
2436.6179,100.42
2437.5823,100.418
2438.5464,100.421
2439.5107,100.429
2440.4749,100.442
2441.4392,100.456
2442.4033,100.468
2443.3677,100.478
2444.3318,100.482
2445.2961,100.482
2446.2603,100.478
2447.2246,100.471
2448.1887,100.463
2449.1531,100.455
2450.1172,100.451
2451.0815,100.451
2452.0457,100.456
2453.0100,100.462
2453.9741,100.469
2454.9385,100.473
2455.9026,100.474
2456.8669,100.472
2457.8311,100.468
2458.7954,100.463
2459.7595,100.459
2460.7239,100.456
2461.6880,100.454
2462.6523,100.453
2463.6165,100.456
2464.5808,100.46
2465.5449,100.465
2466.5093,100.468
2467.4734,100.469
2468.4377,100.466
2469.4019,100.462
2470.3662,100.459
2471.3303,100.459
2472.2947,100.461
2473.2588,100.464
2474.2231,100.467
2475.1873,100.468
2476.1516,100.465
2477.1157,100.462
2478.0801,100.458
2479.0442,100.455
2480.0085,100.453
2480.9727,100.453
2481.9370,100.455
2482.9011,100.458
2483.8655,100.461
2484.8296,100.465
2485.7939,100.469
2486.7581,100.472
2487.7224,100.475
2488.6865,100.477
2489.6509,100.478
2490.6150,100.477
2491.5793,100.475
2492.5435,100.472
2493.5078,100.468
2494.4719,100.465
2495.4363,100.465
2496.4004,100.467
2497.3647,100.471
2498.3289,100.475
2499.2932,100.476
2500.2573,100.475
2501.2217,100.472
2502.1858,100.47
2503.1501,100.47
2504.1143,100.472
2505.0786,100.474
2506.0427,100.473
2507.0071,100.47
2507.9712,100.464
2508.9355,100.457
2509.8997,100.451
2510.8640,100.447
2511.8281,100.444
2512.7925,100.443
2513.7566,100.444
2514.7209,100.447
2515.6851,100.452
2516.6494,100.459
2517.6135,100.466
2518.5779,100.47
2519.5420,100.47
2520.5063,100.466
2521.4705,100.459
2522.4348,100.454
2523.3989,100.452
2524.3633,100.454
2525.3274,100.459
2526.2917,100.464
2527.2559,100.467
2528.2202,100.467
2529.1843,100.464
2530.1487,100.459
2531.1128,100.453
2532.0771,100.445
2533.0413,100.438
2534.0056,100.433
2534.9697,100.431
2535.9341,100.433
2536.8982,100.439
2537.8625,100.447
2538.8267,100.455
2539.7910,100.462
2540.7551,100.465
2541.7195,100.464
2542.6836,100.462
2543.6479,100.458
2544.6121,100.456
2545.5764,100.456
2546.5405,100.458
2547.5049,100.461
2548.4690,100.463
2549.4333,100.464
2550.3975,100.463
2551.3618,100.462
2552.3259,100.462
2553.2903,100.464
2554.2544,100.468
2555.2188,100.474
2556.1829,100.48
2557.1472,100.486
2558.1113,100.491
2559.0757,100.496
2560.0398,100.501
2561.0042,100.505
2561.9683,100.508
2562.9326,100.508
2563.8967,100.507
2564.8611,100.506
2565.8252,100.505
2566.7896,100.506
2567.7537,100.51
2568.7180,100.514
2569.6821,100.516
2570.6465,100.514
2571.6106,100.508
2572.5750,100.499
2573.5391,100.491
2574.5034,100.487
2575.4675,100.488
2576.4319,100.493
2577.3960,100.5
2578.3604,100.506
2579.3245,100.51
2580.2888,100.514
2581.2529,100.518
2582.2173,100.523
2583.1814,100.528
2584.1458,100.532
2585.1099,100.534
2586.0742,100.532
2587.0383,100.528
2588.0027,100.524
2588.9668,100.521
2589.9312,100.52
2590.8953,100.519
2591.8596,100.519
2592.8237,100.518
2593.7881,100.517
2594.7522,100.517
2595.7166,100.518
2596.6807,100.521
2597.6450,100.527
2598.6091,100.533
2599.5735,100.539
2600.5376,100.543
2601.5020,100.544
2602.4661,100.541
2603.4304,100.537
2604.3945,100.533
2605.3589,100.532
2606.3230,100.534
2607.2874,100.538
2608.2515,100.542
2609.2158,100.546
2610.1799,100.548
2611.1443,100.55
2612.1084,100.553
2613.0728,100.558
2614.0369,100.564
2615.0012,100.569
2615.9653,100.572
2616.9297,100.571
2617.8938,100.568
2618.8582,100.564
2619.8223,100.562
2620.7866,100.563
2621.7507,100.567
2622.7151,100.573
2623.6792,100.577
2624.6436,100.579
2625.6077,100.579
2626.5720,100.577
2627.5361,100.576
2628.5005,100.578
2629.4646,100.582
2630.4290,100.586
2631.3931,100.59
2632.3574,100.592
2633.3215,100.592
2634.2859,100.592
2635.2500,100.591
2636.2144,100.592
2637.1785,100.593
2638.1428,100.596
2639.1069,100.602
2640.0713,100.61
2641.0354,100.62
2641.9998,100.631
2642.9639,100.641
2643.9282,100.648
2644.8923,100.652
2645.8567,100.654
2646.8208,100.654
2647.7852,100.652
2648.7493,100.647
2649.7136,100.642
2650.6777,100.637
2651.6421,100.634
2652.6062,100.637
2653.5706,100.646
2654.5347,100.66
2655.4990,100.675
2656.4631,100.689
2657.4275,100.698
2658.3916,100.702
2659.3560,100.704
2660.3201,100.705
2661.2844,100.707
2662.2485,100.712
2663.2129,100.72
2664.1770,100.729
2665.1414,100.739
2666.1055,100.75
2667.0698,100.761
2668.0339,100.772
2668.9983,100.782
2669.9624,100.789
2670.9268,100.795
2671.8909,100.801
2672.8552,100.808
2673.8193,100.818
2674.7837,100.829
2675.7478,100.84
2676.7122,100.849
2677.6763,100.855
2678.6406,100.858
2679.6047,100.856
2680.5691,100.852
2681.5332,100.845
2682.4976,100.839
2683.4617,100.833
2684.4260,100.831
2685.3901,100.832
2686.3545,100.837
2687.3186,100.844
2688.2830,100.85
2689.2471,100.855
2690.2114,100.858
2691.1755,100.862
2692.1399,100.866
2693.1040,100.873
2694.0684,100.881
2695.0325,100.887
2695.9968,100.891
2696.9609,100.89
2697.9253,100.888
2698.8894,100.885
2699.8538,100.882
2700.8179,100.881
2701.7822,100.881
2702.7463,100.88
2703.7107,100.879
2704.6748,100.876
2705.6392,100.873
2706.6033,100.868
2707.5676,100.863
2708.5317,100.857
2709.4961,100.851
2710.4602,100.845
2711.4246,100.84
2712.3887,100.835
2713.3530,100.828
2714.3171,100.819
2715.2815,100.807
2716.2456,100.792
2717.2100,100.778
2718.1741,100.767
2719.1384,100.761
2720.1025,100.758
2721.0669,100.759
2722.0310,100.758
2722.9954,100.755
2723.9595,100.748
2724.9238,100.738
2725.8879,100.726
2726.8523,100.715
2727.8164,100.706
2728.7808,100.697
2729.7449,100.69
2730.7092,100.685
2731.6733,100.682
2732.6377,100.681
2733.6018,100.68
2734.5662,100.68
2735.5303,100.678
2736.4946,100.676
2737.4587,100.674
2738.4231,100.673
2739.3872,100.676
2740.3516,100.683
2741.3157,100.692
2742.2800,100.703
2743.2441,100.716
2744.2085,100.729
2745.1726,100.742
2746.1370,100.754
2747.1011,100.763
2748.0654,100.768
2749.0295,100.77
2749.9939,100.769
2750.9580,100.767
2751.9224,100.766
2752.8865,100.764
2753.8508,100.761
2754.8149,100.756
2755.7793,100.748
2756.7434,100.736
2757.7078,100.723
2758.6719,100.709
2759.6362,100.698
2760.6003,100.69
2761.5647,100.686
2762.5288,100.685
2763.4932,100.683
2764.4573,100.677
2765.4216,100.667
2766.3857,100.652
2767.3501,100.635
2768.3142,100.62
2769.2786,100.609
2770.2427,100.601
2771.2070,100.593
2772.1711,100.578
2773.1355,100.556
2774.0996,100.526
2775.0640,100.493
2776.0281,100.462
2776.9924,100.436
2777.9565,100.411
2778.9209,100.385
2779.8850,100.351
2780.8494,100.309
2781.8135,100.263
2782.7778,100.218
2783.7419,100.18
2784.7063,100.151
2785.6704,100.128
2786.6348,100.106
2787.5989,100.079
2788.5632,100.045
2789.5273,100.005
2790.4917,99.9607
2791.4558,99.918
2792.4202,99.8792
2793.3843,99.8439
2794.3486,99.81
2795.3127,99.7743
2796.2771,99.7349
2797.2412,99.6909
2798.2056,99.6432
2799.1697,99.5927
2800.1340,99.5401
2801.0981,99.486
2802.0625,99.4317
2803.0266,99.3786
2803.9910,99.3276
2804.9551,99.278
2805.9194,99.2274
2806.8835,99.1725
2807.8479,99.1103
2808.8120,99.0391
2809.7764,98.9588
2810.7405,98.8701
2811.7048,98.7742
2812.6689,98.6726
2813.6333,98.5669
2814.5974,98.4591
2815.5618,98.3496
2816.5259,98.2375
2817.4902,98.1191
2818.4543,97.99
2819.4187,97.8461
2820.3828,97.6854
2821.3472,97.5087
2822.3113,97.3179
2823.2756,97.1151
2824.2397,96.901
2825.2041,96.6748
2826.1682,96.4352
2827.1326,96.1805
2828.0967,95.9096
2829.0610,95.6213
2830.0251,95.3149
2830.9895,94.9903
2831.9536,94.6487
2832.9180,94.2934
2833.8821,93.9288
2834.8464,93.5588
2835.8105,93.1857
2836.7749,92.81
2837.7390,92.4315
2838.7034,92.0501
2839.6675,91.6654
2840.6318,91.2749
2841.5959,90.8723
2842.5603,90.4485
2843.5244,89.9971
2844.4888,89.5218
2845.4529,89.0426
2846.4172,88.5946
2847.3813,88.2183
2848.3457,87.9438
2849.3098,87.7788
2850.2742,87.7048
2851.2383,87.6857
2852.2026,87.6825
2853.1667,87.6679
2854.1311,87.6319
2855.0952,87.5784
2856.0596,87.5163
2857.0237,87.451
2857.9880,87.3809
2858.9521,87.2995
2859.9165,87.1999
2860.8806,87.0791
2861.8450,86.9383
2862.8091,86.7825
2863.7734,86.6181
2864.7375,86.4511
2865.7019,86.287
2866.6660,86.1303
2867.6304,85.9845
2868.5945,85.8524
2869.5588,85.7358
2870.5229,85.6356
2871.4873,85.5511
2872.4514,85.48
2873.4158,85.4183
2874.3799,85.3614
2875.3442,85.3049
2876.3083,85.2451
2877.2727,85.1795
2878.2368,85.1069
2879.2012,85.0275
2880.1653,84.9442
2881.1296,84.862
2882.0938,84.7879
2883.0581,84.728
2884.0222,84.6854
2884.9866,84.6584
2885.9507,84.6404
2886.9150,84.6215
2887.8792,84.5916
2888.8435,84.5442
2889.8076,84.479
2890.7720,84.4023
2891.7361,84.3234
2892.7004,84.2478
2893.6646,84.1702
2894.6289,84.073
2895.5930,83.9328
2896.5574,83.7346
2897.5215,83.4838
2898.4858,83.2094
2899.4500,82.9536
2900.4143,82.7531
2901.3784,82.6215
2902.3428,82.5442
2903.3069,82.4873
2904.2712,82.4139
2905.2354,82.2988
2906.1997,82.1333
2907.1638,81.9205
2908.1282,81.6675
2909.0923,81.3807
2910.0566,81.0657
2911.0208,80.731
2911.9851,80.3907
2912.9492,80.0633
2913.9136,79.7686
2914.8777,79.5223
2915.8420,79.3321
2916.8062,79.1969
2917.7705,79.1076
2918.7346,79.0513
2919.6990,79.0152
2920.6631,78.9894
2921.6274,78.9685
2922.5916,78.9504
2923.5559,78.935
2924.5200,78.9232
2925.4844,78.918
2926.4485,78.924
2927.4128,78.9472
2928.3770,78.9925
2929.3413,79.0613
2930.3054,79.1507
2931.2698,79.2562
2932.2339,79.3748
2933.1982,79.5079
2934.1624,79.6603
2935.1267,79.8373
2936.0908,80.0405
2937.0552,80.2662
2938.0193,80.5068
2938.9836,80.7541
2939.9478,81.0026
2940.9121,81.2507
2941.8762,81.499
2942.8406,81.7473
2943.8047,81.9918
2944.7690,82.2247
2945.7332,82.4365
2946.6975,82.6191
2947.6616,82.7688
2948.6260,82.8867
2949.5901,82.9779
2950.5544,83.0483
2951.5186,83.1035
2952.4829,83.1475
2953.4470,83.1832
2954.4114,83.2135
2955.3755,83.2422
2956.3398,83.2739
2957.3040,83.314
2958.2683,83.367
2959.2324,83.4352
2960.1968,83.5174
2961.1609,83.6086
2962.1252,83.7015
2963.0894,83.7893
2964.0537,83.8685
2965.0178,83.9403
2965.9822,84.0103
2966.9463,84.0869
2967.9106,84.1796
2968.8748,84.2971
2969.8391,84.4458
2970.8032,84.6289
2971.7676,84.8446
2972.7317,85.087
2973.6960,85.3477
2974.6602,85.6189
2975.6245,85.8959
2976.5886,86.1776
2977.5530,86.465
2978.5171,86.7587
2979.4814,87.0566
2980.4456,87.3524
2981.4099,87.6351
2982.3740,87.8906
2983.3384,88.1071
2984.3025,88.2824
2985.2668,88.4322
2986.2310,88.5909
2987.1953,88.8033
2988.1594,89.1054
2989.1238,89.5058
2990.0879,89.9781
2991.0522,90.4698
2992.0164,90.9252
2992.9807,91.3083
2993.9448,91.6148
2994.9092,91.8668
2995.8733,92.096
2996.8376,92.3268
2997.8018,92.5687
2998.7661,92.8189
2999.7302,93.0712
3000.6946,93.3227
3001.6587,93.5754
3002.6230,93.8341
3003.5872,94.1024
3004.5515,94.38
3005.5156,94.6628
3006.4800,94.9437
3007.4441,95.2153
3008.4084,95.4721
3009.3726,95.7126
3010.3369,95.9407
3011.3010,96.1634
3012.2654,96.3873
3013.2295,96.6145
3014.1938,96.8415
3015.1580,97.0611
3016.1223,97.2668
3017.0864,97.4555
3018.0508,97.6287
3019.0149,97.7896
3019.9792,97.9412
3020.9434,98.0846
3021.9077,98.2194
3022.8718,98.3455
3023.8362,98.4632
3024.8003,98.5737
3025.7646,98.6773
3026.7288,98.7739
3027.6931,98.8631
3028.6572,98.9455
3029.6216,99.024
3030.5857,99.1024
3031.5500,99.1837
3032.5142,99.2683
3033.4785,99.3538
3034.4426,99.4357
3035.4070,99.5104
3036.3711,99.576
3037.3354,99.6326
3038.2996,99.6813
3039.2639,99.7226
3040.2280,99.7565
3041.1924,99.7818
3042.1565,99.7972
3043.1208,99.8028
3044.0850,99.8003
3045.0493,99.7938
3046.0134,99.7882
3046.9778,99.7875
3047.9419,99.7924
3048.9063,99.7993
3049.8704,99.8019
3050.8347,99.7946
3051.7988,99.7756
3052.7632,99.748
3053.7273,99.718
3054.6917,99.665
3055.6558,99.6135
3056.6201,99.572
3057.5842,99.5384
3058.5486,99.5082
3059.5127,99.4758
3060.4771,99.4357
3061.4412,99.3846
3062.4055,99.3229
3063.3696,99.2563
3064.3340,99.1936
3065.2981,99.1428
3066.2625,99.1067
3067.2266,99.0815
3068.1909,99.0594
3069.1550,99.0331
3070.1194,98.9998
3071.0835,98.961
3072.0479,98.9203
3073.0120,98.8794
3073.9763,98.8374
3074.9404,98.7916
3075.9048,98.7401
3076.8689,98.6834
3077.8333,98.6247
3078.7974,98.5681
3079.7617,98.5169
3080.7258,98.4724
3081.6902,98.4335
3082.6543,98.3975
3083.6187,98.3606
3084.5828,98.3196
3085.5471,98.2727
3086.5112,98.2198
3087.4756,98.1628
3088.4397,98.1034
3089.4041,98.0426
3090.3682,97.9796
3091.3325,97.9126
3092.2966,97.8403
3093.2610,97.7631
3094.2251,97.6825
3095.1895,97.6007
3096.1536,97.5196
3097.1179,97.4406
3098.0820,97.3648
3099.0464,97.2937
3100.0105,97.2288
3100.9749,97.1702
3101.9390,97.1157
3102.9033,97.0616
3103.8674,97.0035
3104.8318,96.9386
3105.7959,96.8665
3106.7603,96.7888
3107.7244,96.708
3108.6887,96.6257
3109.6528,96.5422
3110.6172,96.4567
3111.5813,96.3693
3112.5457,96.281
3113.5098,96.1945
3114.4741,96.1125
3115.4382,96.0368
3116.4026,95.967
3117.3667,95.9011
3118.3311,95.8363
3119.2952,95.7704
3120.2595,95.7025
3121.2236,95.6329
3122.1880,95.5628
3123.1521,95.494
3124.1165,95.4279
3125.0806,95.3654
3126.0449,95.3048
3127.0090,95.2424
3127.9734,95.1727
3128.9375,95.0919
3129.9019,95.0001
3130.8660,94.9026
3131.8303,94.8084
3132.7944,94.726
3133.7588,94.6589
3134.7229,94.6037
3135.6873,94.5517
3136.6514,94.4931
3137.6157,94.4219
3138.5798,94.3378
3139.5442,94.246
3140.5083,94.1534
3141.4727,94.0653
3142.4368,93.9834
3143.4011,93.9057
3144.3652,93.8288
3145.3296,93.7503
3146.2937,93.6705
3147.2581,93.5917
3148.2222,93.5167
3149.1865,93.446
3150.1506,93.3776
3151.1150,93.3072
3152.0791,93.2306
3153.0435,93.1461
3154.0076,93.0547
3154.9719,92.9596
3155.9360,92.8648
3156.9004,92.7739
3157.8645,92.6889
3158.8289,92.61
3159.7930,92.5357
3160.7573,92.463
3161.7214,92.3884
3162.6858,92.3096
3163.6499,92.226
3164.6143,92.1394
3165.5784,92.053
3166.5427,91.9698
3167.5068,91.8913
3168.4712,91.8167
3169.4353,91.7856
3170.3997,91.7108
3171.3638,91.6311
3172.3281,91.5447
3173.2922,91.4518
3174.2566,91.3544
3175.2207,91.2563
3176.1851,91.162
3177.1492,91.0752
3178.1135,90.9966
3179.0776,90.9238
3180.0420,90.8526
3181.0061,90.7794
3181.9705,90.7035
3182.9346,90.6273
3183.8989,90.5543
3184.8630,90.4866
3185.8274,90.4224
3186.7915,90.357
3187.7559,90.2857
3188.7200,90.2066
3189.6843,90.1222
3190.6484,90.0377
3191.6128,89.9573
3192.5769,89.882
3193.5413,89.8092
3194.5054,89.7352
3195.4697,89.6583
3196.4338,89.5798
3197.3982,89.5027
3198.3623,89.4299
3199.3267,89.3623
3200.2908,89.2989
3201.2551,89.2378
3202.2192,89.1773
3203.1836,89.1153
3204.1477,89.05
3205.1121,88.9797
3206.0762,88.9047
3207.0405,88.8275
3208.0046,88.7519
3208.9690,88.681
3209.9331,88.6153
3210.8975,88.5526
3211.8616,88.4905
3212.8259,88.4285
3213.7900,88.3688
3214.7544,88.314
3215.7185,88.2644
3216.6829,88.2168
3217.6470,88.1657
3218.6113,88.1067
3219.5754,88.0395
3220.5398,87.9671
3221.5039,87.8948
3222.4683,87.8262
3223.4324,87.7628
3224.3967,87.7041
3225.3608,87.6491
3226.3252,87.5974
3227.2893,87.549
3228.2537,87.5031
3229.2178,87.458
3230.1821,87.4112
3231.1462,87.3602
3232.1106,87.3043
3233.0747,87.2449
3234.0391,87.1848
3235.0032,87.1266
3235.9675,87.0722
3236.9316,87.0213
3237.8960,86.9725
3238.8601,86.9235
3239.8245,86.8726
3240.7886,86.8197
3241.7529,86.7667
3242.7170,86.717
3243.6814,86.6739
3244.6455,86.6385
3245.6099,86.6089
3246.5740,86.5798
3247.5383,86.5451
3248.5024,86.5012
3249.4668,86.4484
3250.4309,86.3908
3251.3953,86.3337
3252.3594,86.2809
3253.3237,86.2327
3254.2878,86.187
3255.2522,86.1416
3256.2163,86.0966
3257.1807,86.0546
3258.1448,86.0177
3259.1091,85.9859
3260.0732,85.9558
3261.0376,85.9227
3262.0017,85.8835
3262.9661,85.8382
3263.9302,85.7896
3264.8945,85.7406
3265.8586,85.6919
3266.8230,85.6424
3267.7871,85.5902
3268.7515,85.5353
3269.7156,85.4798
3270.6799,85.4272
3271.6440,85.3807
3272.6084,85.3412
3273.5725,85.3078
3274.5369,85.2789
3275.5010,85.2533
3276.4653,85.2301
3277.4294,85.2087
3278.3938,85.1878
3279.3579,85.1651
3280.3223,85.1389
3281.2864,85.1084
3282.2507,85.0746
3283.2148,85.0394
3284.1792,85.004
3285.1433,84.9683
3286.1077,84.9307
3287.0718,84.8896
3288.0361,84.8443
3289.0002,84.796
3289.9646,84.7474
3290.9287,84.7019
3291.8931,84.6621
3292.8572,84.6294
3293.8215,84.6035
3294.7856,84.5821
3295.7500,84.5616
3296.7141,84.5378
3297.6785,84.5079
3298.6426,84.4721
3299.6069,84.4338
3300.5710,84.3976
3301.5354,84.3661
3302.4995,84.3382
3303.4639,84.3095
3304.4280,84.2761
3305.3923,84.2375
3306.3564,84.1979
3307.3208,84.1637
3308.2849,84.1393
3309.2493,84.1249
3310.2134,84.1161
3311.1777,84.1074
3312.1418,84.0952
3313.1062,84.0789
3314.0703,84.06
3315.0347,84.0402
3315.9988,84.0194
3316.9631,83.9965
3317.9272,83.9696
3318.8916,83.938
3319.8557,83.9027
3320.8201,83.8659
3321.7842,83.8301
3322.7485,83.7976
3323.7126,83.7692
3324.6770,83.7449
3325.6411,83.7237
3326.6055,83.7048
3327.5696,83.6874
3328.5339,83.6703
3329.4980,83.6511
3330.4624,83.6272
3331.4265,83.5972
3332.3909,83.5622
3333.3550,83.5266
3334.3193,83.4967
3335.2834,83.4775
3336.2478,83.47
3337.2119,83.4705
3338.1763,83.4727
3339.1404,83.4709
3340.1047,83.4619
3341.0688,83.445
3342.0332,83.421
3342.9973,83.3914
3343.9617,83.3585
3344.9258,83.3263
3345.8901,83.3
3346.8542,83.2839
3347.8186,83.2795
3348.7827,83.2839
3349.7471,83.2906
3350.7112,83.2925
3351.6755,83.2847
3352.6396,83.2661
3353.6040,83.24
3354.5681,83.2123
3355.5325,83.1899
3356.4966,83.178
3357.4609,83.1781
3358.4250,83.1867
3359.3894,83.1957
3360.3535,83.1964
3361.3179,83.1836
3362.2820,83.1585
3363.2463,83.1288
3364.2104,83.1043
3365.1748,83.0925
3366.1389,83.0943
3367.1033,83.1052
3368.0674,83.1182
3369.0317,83.1281
3369.9958,83.1328
3370.9602,83.1334
3371.9243,83.1322
3372.8887,83.1307
3373.8528,83.13
3374.8171,83.1305
3375.7813,83.1321
3376.7456,83.1343
3377.7097,83.1364
3378.6741,83.1379
3379.6382,83.1392
3380.6025,83.1421
3381.5667,83.1482
3382.5310,83.1581
3383.4951,83.1701
3384.4595,83.1808
3385.4236,83.1867
3386.3879,83.1865
3387.3521,83.1827
3388.3164,83.1802
3389.2805,83.1843
3390.2449,83.1976
3391.2090,83.2191
3392.1733,83.2445
3393.1375,83.2692
3394.1018,83.291
3395.0659,83.311
3396.0303,83.3318
3396.9944,83.3547
3397.9587,83.3784
3398.9229,83.3996
3399.8872,83.4159
3400.8513,83.4278
3401.8157,83.4394
3402.7798,83.4555
3403.7441,83.4789
3404.7083,83.5088
3405.6726,83.542
3406.6367,83.5751
3407.6011,83.6063
3408.5652,83.6361
3409.5295,83.6655
3410.4937,83.6949
3411.4580,83.7236
3412.4221,83.7504
3413.3865,83.7743
3414.3506,83.7959
3415.3149,83.8165
3416.2791,83.8373
3417.2434,83.86
3418.2075,83.8862
3419.1719,83.9188
3420.1360,83.9608
3421.1003,84.0139
3422.0645,84.0763
3423.0288,84.1427
3423.9929,84.2063
3424.9573,84.2616
3425.9214,84.3072
3426.8857,84.3467
3427.8499,84.3867
3428.8142,84.4341
3429.7783,84.4913
3430.7427,84.5563
3431.7068,84.6236
3432.6711,84.689
3433.6353,84.7507
3434.5996,84.8103
3435.5637,84.8693
3436.5281,84.9279
3437.4922,84.9832
3438.4565,85.0317
3439.4207,85.0701
3440.3850,85.0978
3441.3491,85.1169
3442.3135,85.1317
3443.2776,85.1493
3444.2419,85.1779
3445.2061,85.2261
3446.1704,85.2992
3447.1345,85.3955
3448.0989,85.505
3449.0630,85.6137
3450.0273,85.7102
3450.9915,85.7895
3451.9558,85.8532
3452.9199,85.9067
3453.8843,85.9566
3454.8484,86.0075
3455.8127,86.0608
3456.7769,86.1152
3457.7412,86.1687
3458.7053,86.2205
3459.6697,86.2719
3460.6338,86.3254
3461.5981,86.3829
3462.5623,86.445
3463.5266,86.5111
3464.4907,86.5807
3465.4551,86.6544
3466.4192,86.7326
3467.3835,86.8142
3468.3477,86.8953
3469.3120,86.9707
3470.2761,87.0371
3471.2405,87.0964
3472.2046,87.1548
3473.1689,87.2197
3474.1331,87.2943
3475.0974,87.3747
3476.0615,87.4525
3477.0259,87.5198
3477.9900,87.5752
3478.9543,87.6246
3479.9185,87.6779
3480.8828,87.7422
3481.8469,87.8177
3482.8113,87.8973
3483.7754,87.9729
3484.7397,88.042
3485.7039,88.1088
3486.6682,88.1808
3487.6323,88.2634
3488.5967,88.3556
3489.5608,88.4504
3490.5251,88.5398
3491.4893,88.6195
3492.4536,88.6918
3493.4177,88.7631
3494.3821,88.8396
3495.3462,88.9214
3496.3105,89.0014
3497.2747,89.0682
3498.2390,89.1147
3499.2031,89.1436
3500.1675,89.1693
3501.1316,89.2133
3502.0959,89.2939
3503.0601,89.4126
3504.0244,89.5501
3504.9885,89.6801
3505.9529,89.7862
3506.9170,89.8688
3507.8813,89.9405
3508.8455,90.0173
3509.8098,90.1098
3510.7739,90.2176
3511.7383,90.3322
3512.7024,90.4445
3513.6667,90.5505
3514.6309,90.6502
3515.5952,90.7444
3516.5593,90.8317
3517.5237,90.9094
3518.4878,90.9761
3519.4521,91.0324
3520.4163,91.0812
3521.3806,91.1262
3522.3447,91.1705
3523.3091,91.2169
3524.2732,91.2705
3525.2375,91.3398
3526.2017,91.4358
3527.1660,91.566
3528.1301,91.7269
3529.0945,91.9014
3530.0586,92.0662
3531.0229,92.2048
3531.9871,92.3156
3532.9514,92.4098
3533.9155,92.5041
3534.8799,92.6117
3535.8440,92.7353
3536.8083,92.8652
3537.7725,92.9843
3538.7368,93.0787
3539.7009,93.1451
3540.6653,93.1909
3541.6294,93.2305
3542.5938,93.2819
3543.5579,93.3639
3544.5222,93.4889
3545.4863,93.6512
3546.4507,93.8251
3547.4148,93.9817
3548.3792,94.1104
3549.3433,94.2219
3550.3076,94.3384
3551.2717,94.4793
3552.2361,94.6513
3553.2002,94.8425
3554.1646,95.0298
3555.1287,95.1934
3556.0930,95.3262
3557.0571,95.431
3558.0215,95.5135
3558.9856,95.5784
3559.9500,95.6287
3560.9141,95.6668
3561.8784,95.6958
3562.8425,95.7207
3563.8069,95.7511
3564.7710,95.8134
3565.7354,95.9573
3566.6995,96.2146
3567.6638,96.5339
3568.6279,96.8102
3569.5923,96.9883
3570.5564,97.0877
3571.5208,97.1533
3572.4849,97.2159
3573.4492,97.2845
3574.4133,97.356
3575.3777,97.4274
3576.3418,97.4998
3577.3062,97.5764
3578.2703,97.6565
3579.2346,97.7336
3580.1987,97.7986
3581.1631,97.8475
3582.1272,97.8846
3583.0916,97.9183
3584.0557,97.9532
3585.0200,97.9932
3585.9841,98.0533
3586.9485,98.15
3587.9126,98.2628
3588.8770,98.3383
3589.8411,98.3492
3590.8054,98.3154
3591.7695,98.2723
3592.7339,98.2444
3593.6980,98.2411
3594.6624,98.2605
3595.6265,98.2909
3596.5908,98.3196
3597.5549,98.3462
3598.5193,98.384
3599.4834,98.4493
3600.4478,98.5458
3601.4119,98.6597
3602.3762,98.7721
3603.3403,98.8737
3604.3047,98.9665
3605.2688,99.0556
3606.2332,99.1452
3607.1973,99.2375
3608.1616,99.3263
3609.1257,99.3931
3610.0901,99.4184
3611.0542,99.3983
3612.0186,99.3483
3612.9829,99.2937
3613.9470,99.2577
3614.9114,99.2485
3615.8755,99.2715
3616.8398,99.3236
3617.8040,99.3982
3618.7683,99.4815
3619.7324,99.541
3620.6968,99.5371
3621.6609,99.4653
3622.6252,99.3717
3623.5894,99.3187
3624.5537,99.342
3625.5178,99.4297
3626.4822,99.5374
3627.4463,99.6366
3628.4106,99.7369
3629.3748,99.8207
3630.3391,99.8324
3631.3032,99.77
3632.2676,99.6938
3633.2317,99.6592
3634.1960,99.6793
3635.1602,99.7325
3636.1245,99.7867
3637.0886,99.821
3638.0530,99.8315
3639.0171,99.8233
3639.9814,99.8012
3640.9456,99.7679
3641.9099,99.7292
3642.8740,99.6973
3643.8384,99.6806
3644.8025,99.6653
3645.7668,99.6048
3646.7310,99.4579
3647.6953,99.3014
3648.6594,99.3424
3649.6238,99.6031
3650.5879,99.8348
3651.5522,99.8952
3652.5164,99.8394
3653.4807,99.7595
3654.4448,99.7
3655.4092,99.6623
3656.3733,99.6328
3657.3376,99.5996
3658.3018,99.5615
3659.2661,99.5307
3660.2302,99.5213
3661.1946,99.5331
3662.1587,99.5512
3663.1230,99.5625
3664.0872,99.57
3665.0515,99.586
3666.0156,99.6118
3666.9800,99.6254
3667.9441,99.602
3668.9084,99.5522
3669.8726,99.515
3670.8369,99.5054
3671.8010,99.5064
3672.7654,99.4948
3673.7295,99.4587
3674.6938,99.4237
3675.6580,99.4462
3676.6223,99.53
3677.5864,99.6133
3678.5508,99.6605
3679.5149,99.6827
3680.4792,99.6939
3681.4434,99.6924
3682.4077,99.676
3683.3718,99.6562
3684.3362,99.6506
3685.3003,99.6577
3686.2646,99.6426
3687.2288,99.5642
3688.1931,99.4436
3689.1572,99.3783
3690.1216,99.4223
3691.0857,99.5217
3692.0500,99.6095
3693.0142,99.6695
3693.9785,99.7136
3694.9426,99.7557
3695.9070,99.8061
3696.8711,99.8725
3697.8354,99.9583
3698.7996,100.058
3699.7639,100.16
3700.7280,100.251
3701.6924,100.317
3702.6565,100.349
3703.6208,100.346
3704.5850,100.321
3705.5493,100.295
3706.5134,100.276
3707.4778,100.258
3708.4419,100.233
3709.4063,100.242
3710.3704,100.369
3711.3347,100.633
3712.2988,100.906
3713.2632,101.054
3714.2273,101.055
3715.1917,100.971
3716.1558,100.86
3717.1201,100.751
3718.0842,100.645
3719.0486,100.535
3720.0127,100.421
3720.9771,100.315
3721.9412,100.231
3722.9055,100.183
3723.8696,100.176
3724.8340,100.201
3725.7981,100.24
3726.7625,100.276
3727.7266,100.303
3728.6909,100.33
3729.6550,100.358
3730.6194,100.371
3731.5835,100.342
3732.5479,100.263
3733.5120,100.188
3734.4763,100.21
3735.4404,100.334
3736.4048,100.445
3737.3689,100.456
3738.3333,100.41
3739.2974,100.415
3740.2617,100.549
3741.2258,100.807
3742.1902,101.096
3743.1543,101.276
3744.1187,101.25
3745.0828,101.029
3746.0471,100.714
3747.0112,100.416
3747.9756,100.207
3748.9397,100.116
3749.9041,100.164
3750.8682,100.329
3751.8325,100.482
3752.7966,100.515
3753.7610,100.416
3754.7251,100.275
3755.6895,100.164
3756.6536,100.106
3757.6179,100.1
3758.5820,100.138
3759.5464,100.2
3760.5105,100.257
3761.4749,100.294
3762.4390,100.311
3763.4033,100.318
3764.3674,100.317
3765.3318,100.311
3766.2959,100.305
3767.2603,100.306
3768.2244,100.323
3769.1887,100.359
3770.1528,100.405
3771.1172,100.439
3772.0813,100.445
3773.0457,100.425
3774.0098,100.395
3774.9741,100.371
3775.9382,100.352
3776.9026,100.334
3777.8667,100.316
3778.8311,100.304
3779.7952,100.294
3780.7595,100.27
3781.7236,100.229
3782.6880,100.182
3783.6521,100.149
3784.6165,100.15
3785.5806,100.189
3786.5449,100.257
3787.5090,100.331
3788.4734,100.392
3789.4375,100.432
3790.4019,100.454
3791.3660,100.458
3792.3303,100.44
3793.2944,100.389
3794.2588,100.303
3795.2229,100.199
3796.1873,100.11
3797.1514,100.064
3798.1157,100.063
3799.0798,100.085
3800.0442,100.106
3801.0083,100.117
3801.9727,100.122
3802.9368,100.129
3803.9011,100.156
3804.8652,100.222
3805.8296,100.324
3806.7937,100.425
3807.7581,100.476
3808.7222,100.45
3809.6865,100.378
3810.6506,100.325
3811.6150,100.334
3812.5791,100.391
3813.5435,100.435
3814.5076,100.405
3815.4719,100.295
3816.4360,100.148
3817.4004,100.021
3818.3645,99.9522
3819.3289,99.9543
3820.2930,100.016
3821.2573,100.088
3822.2214,100.106
3823.1858,100.052
3824.1499,99.9628
3825.1143,99.9002
3826.0784,99.8996
3827.0427,99.9592
3828.0068,100.049
3828.9712,100.133
3829.9353,100.185
3830.8997,100.204
3831.8638,100.201
3832.8281,100.194
3833.7922,100.183
3834.7566,100.152
3835.7207,100.077
3836.6851,99.9569
3837.6492,99.8305
3838.6135,99.7548
3839.5776,99.7569
3840.5420,99.8232
3841.5061,99.9256
3842.4705,100.034
3843.4346,100.116
3844.3989,100.141
3845.3630,100.099
3846.3274,100.021
3847.2915,99.9673
3848.2559,100.002
3849.2200,100.155
3850.1843,100.397
3851.1484,100.653
3852.1128,100.865
3853.0769,101.027
3854.0413,101.065
3855.0054,100.887
3855.9697,100.562
3856.9338,100.248
3857.8982,100.052
3858.8623,99.9886
3859.8267,100.009
3860.7908,100.041
3861.7551,100.037
3862.7192,100.008
3863.6836,99.9985
3864.6477,100.035
3865.6121,100.107
3866.5762,100.186
3867.5405,100.24
3868.5046,100.251
3869.4690,100.222
3870.4331,100.181
3871.3975,100.153
3872.3616,100.143
3873.3259,100.139
3874.2900,100.14
3875.2544,100.15
3876.2185,100.173
3877.1829,100.199
3878.1470,100.209
3879.1113,100.19
3880.0754,100.153
3881.0398,100.129
3882.0039,100.147
3882.9683,100.213
3883.9324,100.305
3884.8967,100.386
3885.8608,100.421
3886.8252,100.397
3887.7893,100.333
3888.7537,100.259
3889.7178,100.196
3890.6821,100.156
3891.6462,100.141
3892.6106,100.139
3893.5747,100.137
3894.5391,100.141
3895.5032,100.167
3896.4675,100.213
3897.4316,100.256
3898.3960,100.27
3899.3601,100.246
3900.3245,100.196
3901.2886,100.139
3902.2529,100.093
3903.2170,100.074
3904.1814,100.081
3905.1455,100.1
3906.1099,100.118
3907.0740,100.134
3908.0383,100.155
3909.0024,100.18
3909.9668,100.202
3910.9309,100.212
3911.8953,100.212
3912.8594,100.209
3913.8237,100.212
3914.7878,100.224
3915.7522,100.243
3916.7163,100.262
3917.6807,100.273
3918.6448,100.26
3919.6091,100.219
3920.5732,100.156
3921.5376,100.087
3922.5017,100.03
3923.4661,99.9931
3924.4302,99.9754
3925.3945,99.9654
3926.3586,99.9511
3927.3230,99.9299
3928.2871,99.9099
3929.2515,99.9037
3930.2156,99.9234
3931.1799,99.9733
3932.1440,100.042
3933.1084,100.106
3934.0725,100.146
3935.0369,100.157
3936.0010,100.151
3936.9653,100.138
3937.9294,100.121
3938.8938,100.098
3939.8579,100.069
3940.8223,100.039
3941.7864,100.022
3942.7507,100.023
3943.7148,100.035
3944.6792,100.043
3945.6433,100.035
3946.6077,100.008
3947.5718,99.9717
3948.5361,99.9429
3949.5002,99.9377
3950.4646,99.9592
3951.4287,99.9979
3952.3931,100.04
3953.3572,100.074
3954.3215,100.094
3955.2856,100.097
3956.2500,100.085
3957.2141,100.066
3958.1785,100.046
3959.1426,100.033
3960.1069,100.032
3961.0710,100.044
3962.0354,100.065
3962.9995,100.087
3963.9639,100.101
3964.9280,100.104
3965.8923,100.093
3966.8564,100.072
3967.8208,100.046
3968.7849,100.021
3969.7493,100.001
3970.7134,99.9885
3971.6777,99.9847
3972.6418,99.9878
3973.6062,99.9961
3974.5703,100.008
3975.5347,100.022
3976.4988,100.037
3977.4631,100.049
3978.4272,100.058
3979.3916,100.061
3980.3557,100.058
3981.3201,100.049
3982.2842,100.034
3983.2485,100.016
3984.2126,99.9961
3985.1770,99.9793
3986.1411,99.9692
3987.1055,99.9666
3988.0696,99.9679
3989.0339,99.9656
3989.9980,99.953
3990.9624,99.9296
3991.9265,99.9029
3992.8909,99.8856
3993.8550,99.8873
3994.8193,99.9085
3995.7834,99.9388
3996.7478,99.9633
3997.7119,99.9713
3998.6763,99.9623
3999.6404,99.9452
4000.6047,99.7544

##### Extended Information
[Comments]
Sample name
Comment
User
Division
Company,HANKYONG

[Detailed Information]
Creation date,4/24/2024 11:22 AM

Data array type,Linear data array
Horizontal axis,Wavenumber [cm-1]
Vertical axis,%T
Start,649.893 cm-1
End,4000.6 cm-1
Data interval,0.964233 cm-1
Data points,3476    

[Measurement Information]
Model Name,FT/IR-4700typeA
Serial Number,D056761788

Accessory,ATR PRO ONE
Accessory S/N,C174761809
Incident angle,45 deg

Measurement Date,4/24/2024 11:22 AM

Light Source,Standard
Detector,TGS
Accumulation,32
Resolution,4 cm-1
Zero Filling,On
Apodization,Cosine
Gain,Auto (4)
Aperture,Auto (7.1 mm)
Scanning Speed,Auto (2 mm/sec)
Filter,Auto (30000 Hz)

