TITLE,
DATA TYPE,INFRARED SPECTRUM
ORIGIN,JASCO
OWNER,
DATE,24/04/24
TIME,11:51:29
SPECTROMETER/DATA SYSTEM,
LOCALE,1033
RESOLUTION,
DELTAX,0.964233
XUNITS,1/CM
YUNITS,TRANSMITTANCE
FIRSTX,  649.8934
LASTX, 4000.6047
NPOINTS,    3476
FIRSTY,    99.45766
MAXY,   101.28937
MINY,    64.08193
XYDATA
649.8934,99.4577
650.8576,99.3891
651.8218,99.3572
652.7861,99.3397
653.7503,99.3056
654.7145,99.236
655.6788,99.1246
656.6430,98.9765
657.6072,98.8078
658.5715,98.6485
659.5357,98.5393
660.4999,98.5136
661.4642,98.5695
662.4284,98.6558
663.3926,98.6853
664.3569,98.5544
665.3211,98.1491
666.2853,97.3701
667.2496,96.2586
668.2138,95.2074
669.1780,94.7757
670.1423,95.0289
671.1065,95.5681
672.0707,96.057
673.0350,96.3629
673.9992,96.472
674.9634,96.4282
675.9277,96.3064
676.8919,96.1862
677.8561,96.1195
678.8204,96.1197
679.7846,96.1755
680.7488,96.2696
681.7131,96.3865
682.6773,96.5115
683.6415,96.6303
684.6058,96.7328
685.5700,96.8153
686.5342,96.8796
687.4985,96.9265
688.4627,96.9512
689.4269,96.9407
690.3912,96.8803
691.3554,96.7765
692.3196,96.6855
693.2839,96.7045
694.2481,96.8903
695.2123,97.1935
696.1766,97.5102
697.1408,97.7588
698.1050,97.9012
699.0693,97.9356
700.0335,97.8861
700.9977,97.7892
701.9620,97.6792
702.9262,97.5779
703.8904,97.4947
704.8547,97.4301
705.8189,97.3798
706.7831,97.3352
707.7474,97.2843
708.7116,97.2144
709.6758,97.1159
710.6401,96.9842
711.6043,96.817
712.5685,96.61
713.5328,96.3546
714.4970,96.0403
715.4612,95.8779
716.4255,95.4377
717.3897,94.997
718.3539,94.6245
719.3182,94.3918
720.2824,94.3425
721.2466,94.466
722.2109,94.6994
723.1751,94.9561
724.1393,95.1602
725.1036,95.2666
726.0678,95.2663
727.0320,95.1801
727.9963,95.0473
728.9605,94.9096
729.9247,94.7958
730.8890,94.7115
731.8532,94.6386
732.8174,94.5436
733.7817,94.3901
734.7459,94.1513
735.7101,93.8164
736.6744,93.3914
737.6386,92.8942
738.6028,92.3495
739.5671,91.7835
740.5313,91.221
741.4955,90.6841
742.4598,90.1918
743.4240,89.7606
744.3882,89.4044
745.3525,89.1336
746.3167,88.9521
747.2809,88.8552
748.2452,88.8294
749.2094,88.8547
750.1736,88.9097
751.1379,88.9756
752.1021,89.0396
753.0663,89.0943
754.0306,89.1375
754.9948,89.1709
755.9590,89.1978
756.9233,89.2208
757.8875,89.239
758.8517,89.2472
759.8160,89.239
760.7802,89.2123
761.7444,89.174
762.7087,89.14
763.6729,89.1306
764.6371,89.163
765.6014,89.2462
766.5656,89.3798
767.5298,89.5565
768.4941,89.7652
769.4583,89.9926
770.4225,90.2228
771.3868,90.4392
772.3510,90.6264
773.3152,90.7734
774.2795,90.8747
775.2437,90.9288
776.2079,90.9358
777.1722,90.8958
778.1364,90.8106
779.1006,90.6846
780.0649,90.5266
781.0291,90.3469
781.9933,90.1554
782.9576,89.9592
783.9218,89.7635
784.8860,89.5744
785.8503,89.3992
786.8145,89.2448
787.7787,89.1137
788.7430,89.0012
789.7072,88.8966
790.6714,88.7883
791.6357,88.6691
792.5999,88.5393
793.5641,88.4053
794.5284,88.274
795.4926,88.1486
796.4568,88.0261
797.4211,87.8992
798.3853,87.7597
799.3495,87.6004
800.3138,87.4167
801.2780,87.2055
802.2422,86.9659
803.2065,86.7003
804.1707,86.4159
805.1349,86.1244
806.0992,85.8393
807.0634,85.5725
808.0276,85.3305
808.9919,85.113
809.9561,84.915
810.9203,84.7293
811.8846,84.5504
812.8488,84.3773
813.8130,84.2148
814.7773,84.0716
815.7415,83.9578
816.7057,83.8798
817.6700,83.8373
818.6342,83.8227
819.5984,83.8243
820.5627,83.8311
821.5269,83.8371
822.4911,83.8427
823.4554,83.852
824.4196,83.8696
825.3839,83.8979
826.3481,83.937
827.3123,83.9854
828.2766,84.0405
829.2408,84.0979
830.2050,84.1496
831.1693,84.1848
832.1335,84.1913
833.0977,84.1606
834.0620,84.0904
835.0262,83.9852
835.9904,83.854
836.9547,83.7059
837.9189,83.5465
838.8831,83.3764
839.8474,83.1919
840.8116,82.9887
841.7758,82.7643
842.7401,82.5211
843.7043,82.2667
844.6685,82.012
845.6328,81.768
846.5970,81.5428
847.5612,81.3397
848.5255,81.158
849.4897,80.9949
850.4539,80.8489
851.4182,80.7209
852.3824,80.6152
853.3466,80.537
854.3109,80.4897
855.2751,80.4721
856.2393,80.4772
857.2036,80.4947
858.1678,80.5142
859.1320,80.5301
860.0963,80.5439
861.0605,80.5634
862.0247,80.5987
862.9890,80.6587
863.9532,80.7483
864.9174,80.8684
865.8817,81.0167
866.8459,81.1889
867.8101,81.3784
868.7744,81.5766
869.7386,81.774
870.7028,81.9622
871.6671,82.1342
872.6313,82.284
873.5955,82.4044
874.5598,82.487
875.5240,82.5242
876.4882,82.515
877.4525,82.4688
878.4167,82.4042
879.3809,82.3434
880.3452,82.3033
881.3094,82.2899
882.2736,82.299
883.2379,82.3219
884.2021,82.3519
885.1663,82.3887
886.1306,82.4378
887.0948,82.5069
888.0590,82.6029
889.0233,82.7296
889.9875,82.8881
890.9517,83.077
891.9160,83.2932
892.8802,83.5326
893.8444,83.7908
894.8087,84.0646
895.7729,84.351
896.7371,84.6466
897.7014,84.9458
898.6656,85.2404
899.6298,85.5207
900.5941,85.7787
901.5583,86.0097
902.5225,86.2134
903.4868,86.3921
904.4510,86.5485
905.4152,86.684
906.3795,86.7984
907.3437,86.8909
908.3079,86.9614
909.2722,87.0123
910.2364,87.0492
911.2006,87.0796
912.1649,87.1119
913.1291,87.1529
914.0933,87.2064
915.0576,87.2732
916.0218,87.353
916.9860,87.4456
917.9503,87.5525
918.9145,87.6758
919.8787,87.8173
920.8430,87.9766
921.8072,88.1514
922.7714,88.3391
923.7357,88.5383
924.6999,88.7492
925.6641,88.9726
926.6284,89.2083
927.5926,89.4549
928.5568,89.7111
929.5211,89.9805
930.4853,90.2741
931.4495,90.6125
932.4138,91.0211
933.3780,91.5235
934.3422,92.1314
935.3065,92.8386
936.2707,93.6188
937.2349,94.4307
938.1992,95.2285
939.1634,95.973
940.1276,96.6394
941.0919,97.2195
942.0561,97.7174
943.0203,98.1422
943.9846,98.501
944.9488,98.7974
945.9130,99.0327
946.8773,99.2102
947.8415,99.3362
948.8057,99.4421
949.7700,99.5769
950.7342,99.6819
951.6984,99.759
952.6627,99.8093
953.6269,99.8341
954.5911,99.8348
955.5554,99.8111
956.5196,99.7596
957.4838,99.6749
958.4481,99.5529
959.4123,99.3934
960.3765,99.2006
961.3408,98.9817
962.3050,98.7449
963.2692,98.4978
964.2335,98.2484
965.1977,98.0049
966.1619,97.7759
967.1262,97.5679
968.0904,97.3838
969.0546,97.2226
970.0189,97.0809
970.9831,96.9552
971.9473,96.843
972.9116,96.7429
973.8758,96.6534
974.8400,96.5723
975.8043,96.4967
976.7685,96.4225
977.7327,96.3455
978.6970,96.2609
979.6612,96.1634
980.6254,96.0476
981.5897,95.9082
982.5539,95.7406
983.5181,95.5421
984.4824,95.313
985.4466,95.0579
986.4108,94.7862
987.3751,94.5111
988.3393,94.2473
989.3035,94.0074
990.2678,93.7992
991.2320,93.6253
992.1962,93.4829
993.1605,93.3668
994.1247,93.2708
995.0889,93.19
996.0532,93.1209
997.0174,93.0619
997.9816,93.0109
998.9459,92.964
999.9101,92.9128
1000.8743,92.8452
1001.8386,92.7459
1002.8028,92.5994
1003.7670,92.3922
1004.7313,92.1143
1005.6955,91.7597
1006.6597,91.326
1007.6240,90.8136
1008.5882,90.2245
1009.5524,89.5618
1010.5167,88.828
1011.4809,88.0253
1012.4451,87.1563
1013.4094,86.2237
1014.3736,85.2302
1015.3378,84.1788
1016.3021,83.073
1017.2663,81.9191
1018.2305,80.7281
1019.1948,79.5141
1020.1590,78.2897
1021.1232,77.0594
1022.0875,75.8195
1023.0517,74.5638
1024.0160,73.296
1024.9802,72.0385
1025.9445,70.8311
1026.9087,69.7177
1027.8729,68.7284
1028.8372,67.8683
1029.8014,67.1195
1030.7656,66.4548
1031.7299,65.855
1032.6941,65.318
1033.6583,64.8574
1034.6226,64.4932
1035.5868,64.241
1036.5510,64.1062
1037.5153,64.0819
1038.4795,64.1514
1039.4437,64.2912
1040.4080,64.4758
1041.3722,64.683
1042.3364,64.8979
1043.3007,65.1153
1044.2649,65.3375
1045.2291,65.5704
1046.1934,65.8207
1047.1576,66.0955
1048.1218,66.4044
1049.0861,66.7593
1050.0503,67.1707
1051.0145,67.6425
1051.9788,68.168
1052.9430,68.7334
1053.9072,69.3265
1054.8715,69.9455
1055.8357,70.6002
1056.7999,71.3021
1057.7642,72.0479
1058.7284,72.8069
1059.6926,73.521
1060.6569,74.1226
1061.6211,74.5613
1062.5853,74.8276
1063.5496,74.9593
1064.5138,75.0254
1065.4780,75.0954
1066.4423,75.2089
1067.4065,75.36
1068.3707,75.5045
1069.3350,75.5839
1070.2992,75.5522
1071.2634,75.3919
1072.2277,75.1135
1073.1919,74.7436
1074.1561,74.31
1075.1204,73.8337
1076.0846,73.3282
1077.0488,72.8047
1078.0131,72.2757
1078.9773,71.7553
1079.9415,71.2565
1080.9058,70.7885
1081.8700,70.3554
1082.8342,69.9579
1083.7985,69.5969
1084.7627,69.2764
1085.7269,69.0063
1086.6912,68.8022
1087.6554,68.6811
1088.6196,68.6543
1089.5839,68.7201
1090.5481,68.8603
1091.5123,69.0443
1092.4766,69.239
1093.4408,69.4201
1094.4050,69.5791
1095.3693,69.7235
1096.3335,69.8697
1097.2977,70.0346
1098.2620,70.2297
1099.2262,70.4586
1100.1904,70.7185
1101.1547,71.0027
1102.1189,71.3042
1103.0831,71.618
1104.0474,71.9443
1105.0116,72.2888
1105.9758,72.662
1106.9401,73.0762
1107.9043,73.5418
1108.8685,74.066
1109.8328,74.6524
1110.7970,75.3027
1111.7612,76.0167
1112.7255,76.7921
1113.6897,77.6229
1114.6539,78.5008
1115.6182,79.4167
1116.5824,80.365
1117.5466,81.3446
1118.5109,82.3594
1119.4751,83.4147
1120.4393,84.5142
1121.4036,85.6575
1122.3678,86.839
1123.3320,88.0485
1124.2963,89.271
1125.2605,90.4884
1126.2247,91.6803
1127.1890,92.8265
1128.1532,93.9086
1129.1174,94.9116
1130.0817,95.8239
1131.0459,96.6363
1132.0101,97.3413
1132.9744,97.9326
1133.9386,98.4046
1134.9028,98.7532
1135.8671,98.9753
1136.8313,99.0693
1137.7955,99.0366
1138.7598,98.8817
1139.7240,98.6132
1140.6882,98.2436
1141.6525,97.788
1142.6167,97.2643
1143.5809,96.6926
1144.5452,96.0826
1145.5094,95.4189
1146.4736,94.7847
1147.4379,94.2064
1148.4021,93.7058
1149.3663,93.2977
1150.3306,92.9881
1151.2948,92.7742
1152.2590,92.6445
1153.2233,92.5805
1154.1875,92.5587
1155.1517,92.5535
1156.1160,92.5408
1157.0802,92.4998
1158.0444,92.4149
1159.0087,92.2746
1159.9729,92.0712
1160.9371,91.8007
1161.9014,91.463
1162.8656,91.0629
1163.8298,90.6098
1164.7941,90.1166
1165.7583,89.5973
1166.7225,89.0656
1167.6868,88.5326
1168.6510,88.0065
1169.6152,87.4924
1170.5795,86.9929
1171.5437,86.5087
1172.5079,86.04
1173.4722,85.586
1174.4364,85.1454
1175.4006,84.715
1176.3649,84.2899
1177.3291,83.8634
1178.2933,83.4291
1179.2576,82.9821
1180.2218,82.5209
1181.1860,82.0472
1182.1503,81.5647
1183.1145,81.0774
1184.0787,80.5889
1185.0430,80.1012
1186.0072,79.6156
1186.9714,79.1327
1187.9357,78.6525
1188.8999,78.1748
1189.8641,77.6992
1190.8284,77.2251
1191.7926,76.7523
1192.7568,76.2822
1193.7211,75.8176
1194.6853,75.3632
1195.6495,74.9239
1196.6138,74.504
1197.5780,74.1052
1198.5422,73.7273
1199.5065,73.4151
1200.4707,73.0715
1201.4349,72.7501
1202.3992,72.4555
1203.3634,72.1923
1204.3276,71.9632
1205.2919,71.7675
1206.2561,71.6016
1207.2203,71.4616
1208.1846,71.3454
1209.1488,71.2542
1210.1130,71.1913
1211.0773,71.1606
1212.0415,71.1634
1213.0057,71.1977
1213.9700,71.2594
1214.9342,71.3442
1215.8984,71.4497
1216.8627,71.5754
1217.8269,71.7205
1218.7911,71.8814
1219.7554,72.0512
1220.7196,72.2219
1221.6838,72.3871
1222.6481,72.5445
1223.6123,72.6957
1224.5765,72.8429
1225.5408,72.9854
1226.5050,73.1173
1227.4692,73.228
1228.4335,73.305
1229.3977,73.3389
1230.3619,73.3279
1231.3262,73.2806
1232.2904,73.217
1233.2546,73.1641
1234.2189,73.1493
1235.1831,73.1935
1236.1473,73.3066
1237.1116,73.4885
1238.0758,73.7346
1239.0400,74.0407
1240.0043,74.4037
1240.9685,74.8171
1241.9327,75.2636
1242.8970,75.7122
1243.8612,76.1236
1244.8254,76.4621
1245.7897,76.7083
1246.7539,76.8635
1247.7181,76.9444
1248.6824,76.9726
1249.6466,76.9641
1250.6108,76.925
1251.5751,76.8536
1252.5393,76.7457
1253.5035,76.5994
1254.4678,76.4172
1255.4320,76.2056
1256.3962,75.9744
1257.3605,75.7368
1258.3247,75.5082
1259.2889,75.3058
1260.2532,75.145
1261.2174,75.0364
1262.1816,74.9831
1263.1459,74.9808
1264.1101,75.0201
1265.0743,75.0887
1266.0386,75.174
1267.0028,75.2656
1267.9670,75.3567
1268.9313,75.4453
1269.8955,75.5335
1270.8597,75.6265
1271.8240,75.7306
1272.7882,75.8511
1273.7524,75.9916
1274.7167,76.1532
1275.6809,76.3354
1276.6451,76.5357
1277.6094,76.7508
1278.5736,76.9762
1279.5378,77.2075
1280.5021,77.44
1281.4663,77.6697
1282.4305,77.8935
1283.3948,78.1107
1284.3590,78.3228
1285.3232,78.5341
1286.2875,78.75
1287.2517,78.9756
1288.2159,79.2139
1289.1802,79.4644
1290.1444,79.7234
1291.1086,79.9867
1292.0729,80.2511
1293.0371,80.5161
1294.0013,80.7834
1294.9656,81.0547
1295.9298,81.33
1296.8940,81.6067
1297.8583,81.8796
1298.8225,82.1428
1299.7867,82.3907
1300.7510,82.6194
1301.7152,82.8261
1302.6794,83.0115
1303.6437,83.179
1304.6079,83.3335
1305.5721,83.4788
1306.5364,83.6156
1307.5006,83.741
1308.4648,83.8511
1309.4291,83.9445
1310.3933,84.0246
1311.3575,84.0986
1312.3218,84.1727
1313.2860,84.2483
1314.2502,84.3219
1315.2145,84.3897
1316.1787,84.4528
1317.1429,84.5186
1318.1072,84.5971
1319.0714,84.6926
1320.0356,84.7986
1320.9999,84.9007
1321.9641,84.9847
1322.9283,85.0446
1323.8926,85.0836
1324.8568,85.1105
1325.8210,85.1339
1326.7853,85.1593
1327.7495,85.1887
1328.7137,85.2229
1329.6780,85.2643
1330.6422,85.315
1331.6064,85.3737
1332.5707,85.433
1333.5349,85.4795
1334.4991,85.4999
1335.4634,85.4876
1336.4276,85.4509
1337.3918,85.4171
1338.3561,85.4264
1339.3203,85.5071
1340.2845,85.6486
1341.2488,85.8065
1342.2130,85.9351
1343.1772,86.0107
1344.1415,86.0311
1345.1057,86.0047
1346.0699,85.9438
1347.0342,85.8613
1347.9984,85.7689
1348.9626,85.6735
1349.9269,85.5771
1350.8911,85.4781
1351.8553,85.3754
1352.8196,85.2728
1353.7838,85.1785
1354.7480,85.1008
1355.7123,85.0413
1356.6765,84.9919
1357.6407,84.9401
1358.6050,84.8776
1359.5692,84.8081
1360.5334,84.7527
1361.4977,84.7452
1362.4619,84.8074
1363.4261,84.9229
1364.3904,85.0486
1365.3546,85.1535
1366.3188,85.2336
1367.2831,85.2998
1368.2473,85.3602
1369.2115,85.4125
1370.1758,85.4473
1371.1400,85.458
1372.1042,85.4507
1373.0685,85.4463
1374.0327,85.4719
1374.9969,85.5393
1375.9612,85.6352
1376.9254,85.7388
1377.8896,85.8448
1378.8539,85.965
1379.8181,86.1137
1380.7823,86.2931
1381.7466,86.4915
1382.7108,86.6955
1383.6750,86.904
1384.6393,87.1313
1385.6035,87.3967
1386.5677,87.701
1387.5320,88.0004
1388.4962,88.2193
1389.4604,88.3069
1390.4247,88.2689
1391.3889,88.1471
1392.3531,87.9898
1393.3174,87.8436
1394.2816,87.7524
1395.2458,87.7426
1396.2101,87.7999
1397.1743,87.8713
1398.1385,87.8984
1399.1028,87.8475
1400.0670,87.7164
1401.0313,87.5223
1401.9955,87.2899
1402.9597,87.0439
1403.9240,86.8084
1404.8882,86.6047
1405.8524,86.4429
1406.8167,86.3164
1407.7809,86.2105
1408.7451,86.1159
1409.7094,86.0315
1410.6736,85.9566
1411.6378,85.8856
1412.6021,85.8094
1413.5663,85.7231
1414.5305,85.6289
1415.4948,85.5285
1416.4590,85.4176
1417.4232,85.2948
1418.3875,85.1673
1419.3517,85.0275
1420.3159,84.8438
1421.2802,84.5995
1422.2444,84.3146
1423.2086,84.0237
1424.1729,83.7515
1425.1371,83.5055
1426.1013,83.2795
1427.0656,83.0604
1428.0298,82.8378
1428.9940,82.6122
1429.9583,82.3977
1430.9225,82.2136
1431.8867,82.0728
1432.8510,81.9748
1433.8152,81.9025
1434.7794,81.8246
1435.7437,81.7112
1436.7079,81.5487
1437.6721,81.3304
1438.6364,81.0532
1439.6006,80.7345
1440.5648,80.4073
1441.5291,80.0969
1442.4933,79.8107
1443.4575,79.542
1444.4218,79.2796
1445.3860,79.0144
1446.3502,78.7432
1447.3145,78.4682
1448.2787,78.1927
1449.2429,77.9174
1450.2072,77.6465
1451.1714,77.3966
1452.1356,77.1921
1453.0999,77.0447
1454.0641,76.9315
1455.0283,76.8017
1455.9926,76.6498
1456.9568,76.5862
1457.9210,76.6532
1458.8853,76.689
1459.8495,76.6089
1460.8137,76.4936
1461.7780,76.4586
1462.7422,76.5972
1463.7064,76.9789
1464.6707,77.6122
1465.6349,78.3864
1466.5991,79.1327
1467.5634,79.7717
1468.5276,80.3435
1469.4918,80.9316
1470.4561,81.6094
1471.4203,82.4355
1472.3845,83.4341
1473.3488,84.5044
1474.3130,85.4152
1475.2772,86.008
1476.2415,86.3006
1477.2057,86.3908
1478.1699,86.371
1479.1342,86.3148
1480.0984,86.2868
1481.0626,86.3381
1482.0269,86.4892
1482.9911,86.7206
1483.9553,86.986
1484.9196,87.2356
1485.8838,87.4291
1486.8480,87.5465
1487.8123,87.6112
1488.7765,87.6958
1489.7407,87.8355
1490.7050,87.958
1491.6692,87.9823
1492.6334,87.9047
1493.5977,87.7553
1494.5619,87.5383
1495.5261,87.2232
1496.4904,86.7855
1497.4546,86.2535
1498.4188,85.6893
1499.3831,85.1389
1500.3473,84.641
1501.3115,84.2465
1502.2758,83.9959
1503.2400,83.8804
1504.2042,83.8104
1505.1685,83.6247
1506.1327,83.2438
1507.0969,82.8986
1508.0612,82.8042
1509.0254,82.7681
1509.9896,82.6277
1510.9539,82.4155
1511.9181,82.2058
1512.8823,82.0573
1513.8466,82.0295
1514.8108,82.1925
1515.7750,82.5983
1516.7393,83.2415
1517.7035,84.075
1518.6677,85.0806
1519.6320,86.2998
1520.5962,87.7535
1521.5604,89.3173
1522.5247,90.7551
1523.4889,91.9264
1524.4531,92.8874
1525.4174,93.7776
1526.3816,94.6628
1527.3458,95.4936
1528.3101,96.189
1529.2743,96.7266
1530.2385,97.1546
1531.2028,97.5524
1532.1670,97.9855
1533.1312,98.4602
1534.0955,98.9104
1535.0597,99.2717
1536.0239,99.5503
1536.9882,99.7773
1537.9524,99.9149
1538.9166,99.8489
1539.8809,99.5808
1540.8451,99.4437
1541.8093,99.6755
1542.7736,100.049
1543.7378,100.347
1544.7020,100.538
1545.6663,100.638
1546.6305,100.657
1547.5947,100.612
1548.5590,100.531
1549.5232,100.438
1550.4874,100.335
1551.4517,100.212
1552.4159,100.066
1553.3801,99.9243
1554.3444,99.8502
1555.3086,99.8447
1556.2728,99.8642
1557.2371,99.852
1558.2013,99.8844
1559.1655,100.001
1560.1298,99.8954
1561.0940,99.4307
1562.0582,98.8058
1563.0225,98.228
1563.9867,97.7869
1564.9509,97.4798
1565.9152,97.2514
1566.8794,97.0259
1567.8436,96.7435
1568.8079,96.3934
1569.7721,96.0104
1570.7363,95.6371
1571.7006,95.3002
1572.6648,95
1573.6290,94.6924
1574.5933,94.2986
1575.5575,93.779
1576.5217,93.2037
1577.4860,92.6688
1578.4502,92.1826
1579.4144,91.7121
1580.3787,91.2403
1581.3429,90.7565
1582.3071,90.2491
1583.2714,89.7152
1584.2356,89.1636
1585.1998,88.6041
1586.1641,88.0383
1587.1283,87.4638
1588.0925,86.882
1589.0568,86.3017
1590.0210,85.7336
1590.9852,85.1856
1591.9495,84.6634
1592.9137,84.1768
1593.8779,83.7423
1594.8422,83.3761
1595.8064,83.0825
1596.7706,82.8504
1597.7349,82.6607
1598.6991,82.498
1599.6633,82.3563
1600.6276,82.2392
1601.5918,82.1535
1602.5560,82.1022
1603.5203,82.08
1604.4845,82.0764
1605.4487,82.0854
1606.4130,82.1128
1607.3772,82.1763
1608.3414,82.2932
1609.3057,82.4613
1610.2699,82.6545
1611.2341,82.8476
1612.1984,83.0412
1613.1626,83.2612
1614.1268,83.5474
1615.0911,83.9479
1616.0553,84.4829
1617.0195,85.0632
1617.9838,85.526
1618.9480,85.8138
1619.9122,86.0135
1620.8765,86.2473
1621.8407,86.59
1622.8049,87.0442
1623.7692,87.5466
1624.7334,88.0158
1625.6976,88.421
1626.6619,88.7928
1627.6261,89.1685
1628.5903,89.5455
1629.5546,89.8947
1630.5188,90.2053
1631.4830,90.4989
1632.4473,90.7975
1633.4115,91.0903
1634.3757,91.3572
1635.3400,91.6298
1636.3042,91.9406
1637.2684,92.2041
1638.2327,92.3359
1639.1969,92.3718
1640.1611,92.3935
1641.1254,92.4545
1642.0896,92.5661
1643.0538,92.6972
1644.0181,92.7772
1644.9823,92.7335
1645.9465,92.5838
1646.9108,92.4584
1647.8750,92.4572
1648.8392,92.5922
1649.8035,92.8527
1650.7677,93.1875
1651.7319,93.4682
1652.6962,93.5851
1653.6604,93.5471
1654.6246,93.3121
1655.5889,92.8617
1656.5531,92.3527
1657.5173,91.9454
1658.4816,91.6923
1659.4458,91.5512
1660.4100,91.4379
1661.3743,91.2892
1662.3385,91.0996
1663.3027,90.896
1664.2670,90.6993
1665.2312,90.5178
1666.1954,90.3407
1667.1597,90.1297
1668.1239,89.8467
1669.0881,89.5131
1670.0524,89.2162
1671.0166,89.0176
1671.9808,88.905
1672.9451,88.8351
1673.9093,88.7597
1674.8735,88.6218
1675.8378,88.3716
1676.8020,88.0038
1677.7662,87.5779
1678.7305,87.1905
1679.6947,86.9177
1680.6589,86.7683
1681.6232,86.6715
1682.5874,86.5221
1683.5516,86.2815
1684.5159,85.981
1685.4801,85.6097
1686.4443,85.1555
1687.4086,84.6719
1688.3728,84.2287
1689.3370,83.8684
1690.3013,83.6029
1691.2655,83.4171
1692.2297,83.2705
1693.1940,83.0999
1694.1582,82.8369
1695.1224,82.4502
1696.0867,81.9957
1697.0509,81.6171
1698.0151,81.4451
1698.9794,81.4562
1699.9436,81.4694
1700.9078,81.3192
1701.8721,80.9963
1702.8363,80.6153
1703.8005,80.3091
1704.7648,80.1608
1705.7290,80.1811
1706.6932,80.3152
1707.6575,80.4808
1708.6217,80.624
1709.5859,80.7435
1710.5502,80.868
1711.5144,81.0206
1712.4786,81.2036
1713.4429,81.4079
1714.4071,81.6478
1715.3713,82.0111
1716.3356,82.6359
1717.2998,83.4961
1718.2640,84.294
1719.2283,84.7939
1720.1925,85.0413
1721.1567,85.2091
1722.1210,85.4316
1723.0852,85.7547
1724.0494,86.1507
1725.0137,86.5556
1725.9779,86.9137
1726.9421,87.2057
1727.9064,87.4509
1728.8706,87.6897
1729.8348,87.9632
1730.7991,88.3059
1731.7633,88.7497
1732.7275,89.3136
1733.6918,89.9315
1734.6560,90.4272
1735.6202,90.6859
1736.5845,90.7759
1737.5487,90.8479
1738.5129,91.0074
1739.4772,91.2732
1740.4414,91.5948
1741.4056,91.8969
1742.3699,92.1325
1743.3341,92.307
1744.2983,92.4586
1745.2626,92.6237
1746.2268,92.8235
1747.1910,93.0773
1748.1553,93.42
1749.1195,93.879
1750.0837,94.407
1751.0480,94.8758
1752.0122,95.1862
1752.9764,95.3446
1753.9407,95.4249
1754.9049,95.499
1755.8691,95.6027
1756.8334,95.7371
1757.7976,95.8873
1758.7618,96.0428
1759.7261,96.2067
1760.6903,96.3865
1761.6545,96.5776
1762.6188,96.758
1763.5830,96.9056
1764.5472,97.0195
1765.5115,97.1187
1766.4757,97.2212
1767.4399,97.3279
1768.4042,97.4241
1769.3684,97.4967
1770.3326,97.559
1771.2969,97.6578
1772.2611,97.8264
1773.2253,98.0267
1774.1896,98.1827
1775.1538,98.2685
1776.1180,98.3204
1777.0823,98.3872
1778.0465,98.4921
1779.0107,98.6304
1779.9750,98.7856
1780.9392,98.945
1781.9034,99.1035
1782.8677,99.2571
1783.8319,99.3941
1784.7961,99.4959
1785.7604,99.5515
1786.7246,99.571
1787.6888,99.5818
1788.6531,99.606
1789.6173,99.6426
1790.5815,99.6752
1791.5458,99.6981
1792.5100,99.7167
1793.4742,99.7187
1794.4385,99.6878
1795.4027,99.6403
1796.3669,99.6135
1797.3312,99.6295
1798.2954,99.6844
1799.2596,99.7601
1800.2239,99.8403
1801.1881,99.9128
1802.1523,99.9667
1803.1166,99.9957
1804.0808,100.002
1805.0450,99.992
1806.0093,99.9717
1806.9735,99.9432
1807.9377,99.9094
1808.9020,99.8792
1809.8662,99.8677
1810.8304,99.8856
1811.7947,99.9282
1812.7589,99.9802
1813.7231,100.028
1814.6874,100.065
1815.6516,100.09
1816.6158,100.101
1817.5801,100.097
1818.5443,100.081
1819.5085,100.06
1820.4728,100.042
1821.4370,100.033
1822.4012,100.032
1823.3655,100.045
1824.3297,100.061
1825.2939,100.061
1826.2582,100.043
1827.2224,100.019
1828.1866,100.009
1829.1509,100.033
1830.1151,100.092
1831.0793,100.156
1832.0436,100.189
1833.0078,100.185
1833.9720,100.163
1834.9363,100.143
1835.9005,100.134
1836.8647,100.134
1837.8290,100.141
1838.7932,100.16
1839.7574,100.203
1840.7217,100.27
1841.6859,100.342
1842.6501,100.389
1843.6144,100.396
1844.5786,100.37
1845.5428,100.329
1846.5071,100.282
1847.4713,100.248
1848.4355,100.244
1849.3998,100.271
1850.3640,100.316
1851.3282,100.357
1852.2925,100.381
1853.2567,100.387
1854.2209,100.382
1855.1852,100.373
1856.1494,100.362
1857.1136,100.352
1858.0779,100.345
1859.0421,100.345
1860.0063,100.35
1860.9706,100.354
1861.9348,100.346
1862.8990,100.319
1863.8633,100.274
1864.8275,100.214
1865.7917,100.15
1866.7560,100.099
1867.7202,100.094
1868.6844,100.159
1869.6487,100.268
1870.6129,100.362
1871.5771,100.411
1872.5414,100.423
1873.5056,100.423
1874.4698,100.425
1875.4341,100.43
1876.3983,100.437
1877.3625,100.441
1878.3268,100.443
1879.2910,100.443
1880.2552,100.441
1881.2195,100.435
1882.1837,100.423
1883.1479,100.406
1884.1122,100.389
1885.0764,100.378
1886.0406,100.376
1887.0049,100.383
1887.9691,100.394
1888.9333,100.404
1889.8976,100.408
1890.8618,100.4
1891.8260,100.38
1892.7903,100.355
1893.7545,100.336
1894.7188,100.333
1895.6830,100.348
1896.6472,100.373
1897.6115,100.399
1898.5757,100.415
1899.5399,100.42
1900.5042,100.416
1901.4684,100.407
1902.4326,100.395
1903.3969,100.378
1904.3611,100.352
1905.3253,100.317
1906.2896,100.275
1907.2538,100.237
1908.2180,100.216
1909.1823,100.219
1910.1465,100.243
1911.1107,100.275
1912.0750,100.301
1913.0392,100.32
1914.0034,100.336
1914.9677,100.351
1915.9319,100.364
1916.8961,100.367
1917.8604,100.351
1918.8246,100.311
1919.7888,100.252
1920.7531,100.193
1921.7173,100.155
1922.6815,100.154
1923.6458,100.186
1924.6100,100.235
1925.5742,100.278
1926.5385,100.305
1927.5027,100.316
1928.4669,100.316
1929.4312,100.312
1930.3954,100.307
1931.3596,100.303
1932.3239,100.301
1933.2881,100.301
1934.2523,100.305
1935.2166,100.31
1936.1808,100.312
1937.1450,100.309
1938.1093,100.298
1939.0735,100.28
1940.0377,100.255
1941.0020,100.227
1941.9662,100.204
1942.9304,100.195
1943.8947,100.2
1944.8589,100.216
1945.8231,100.24
1946.7874,100.269
1947.7516,100.3
1948.7158,100.328
1949.6801,100.347
1950.6443,100.356
1951.6085,100.355
1952.5728,100.352
1953.5370,100.351
1954.5012,100.356
1955.4655,100.365
1956.4297,100.376
1957.3939,100.384
1958.3582,100.39
1959.3224,100.394
1960.2866,100.396
1961.2509,100.395
1962.2151,100.387
1963.1793,100.37
1964.1436,100.348
1965.1078,100.328
1966.0720,100.321
1967.0363,100.334
1968.0005,100.365
1968.9647,100.404
1969.9290,100.438
1970.8932,100.461
1971.8574,100.472
1972.8217,100.474
1973.7859,100.471
1974.7501,100.469
1975.7144,100.468
1976.6786,100.467
1977.6428,100.468
1978.6071,100.469
1979.5713,100.471
1980.5355,100.474
1981.4998,100.475
1982.4640,100.474
1983.4282,100.469
1984.3925,100.459
1985.3567,100.444
1986.3209,100.426
1987.2852,100.407
1988.2494,100.388
1989.2136,100.372
1990.1779,100.361
1991.1421,100.359
1992.1063,100.368
1993.0706,100.383
1994.0348,100.4
1994.9990,100.412
1995.9633,100.417
1996.9275,100.417
1997.8917,100.413
1998.8560,100.409
1999.8202,100.406
2000.7844,100.406
2001.7487,100.407
2002.7129,100.406
2003.6771,100.4
2004.6414,100.391
2005.6056,100.379
2006.5698,100.368
2007.5341,100.359
2008.4983,100.353
2009.4625,100.35
2010.4268,100.348
2011.3910,100.343
2012.3552,100.332
2013.3195,100.315
2014.2837,100.292
2015.2479,100.268
2016.2122,100.248
2017.1764,100.239
2018.1406,100.242
2019.1049,100.254
2020.0691,100.269
2021.0333,100.284
2021.9976,100.294
2022.9618,100.301
2023.9260,100.303
2024.8903,100.304
2025.8545,100.302
2026.8187,100.299
2027.7830,100.295
2028.7472,100.29
2029.7114,100.287
2030.6757,100.285
2031.6399,100.284
2032.6041,100.283
2033.5684,100.282
2034.5326,100.282
2035.4968,100.281
2036.4611,100.279
2037.4253,100.273
2038.3895,100.263
2039.3538,100.25
2040.3180,100.239
2041.2822,100.235
2042.2465,100.238
2043.2107,100.247
2044.1749,100.257
2045.1392,100.264
2046.1034,100.266
2047.0676,100.264
2048.0320,100.261
2048.9961,100.258
2049.9604,100.257
2050.9246,100.256
2051.8889,100.254
2052.8530,100.252
2053.8174,100.249
2054.7815,100.246
2055.7458,100.245
2056.7100,100.245
2057.6743,100.245
2058.6384,100.243
2059.6028,100.237
2060.5669,100.224
2061.5313,100.208
2062.4954,100.192
2063.4597,100.181
2064.4238,100.179
2065.3882,100.188
2066.3523,100.203
2067.3167,100.22
2068.2808,100.233
2069.2451,100.243
2070.2092,100.248
2071.1736,100.252
2072.1377,100.256
2073.1021,100.259
2074.0662,100.263
2075.0305,100.264
2075.9946,100.265
2076.9590,100.265
2077.9231,100.266
2078.8875,100.268
2079.8516,100.272
2080.8159,100.278
2081.7800,100.282
2082.7444,100.284
2083.7085,100.284
2084.6729,100.281
2085.6370,100.278
2086.6013,100.275
2087.5654,100.274
2088.5298,100.276
2089.4939,100.278
2090.4583,100.28
2091.4224,100.282
2092.3867,100.282
2093.3508,100.284
2094.3152,100.286
2095.2793,100.292
2096.2437,100.299
2097.2078,100.305
2098.1721,100.31
2099.1362,100.31
2100.1006,100.305
2101.0647,100.3
2102.0291,100.295
2102.9932,100.294
2103.9575,100.296
2104.9216,100.3
2105.8860,100.303
2106.8501,100.304
2107.8145,100.3
2108.7786,100.293
2109.7429,100.284
2110.7070,100.277
2111.6714,100.272
2112.6355,100.271
2113.5999,100.273
2114.5640,100.278
2115.5283,100.282
2116.4924,100.286
2117.4568,100.288
2118.4209,100.288
2119.3853,100.285
2120.3494,100.281
2121.3137,100.277
2122.2778,100.274
2123.2422,100.272
2124.2063,100.272
2125.1707,100.272
2126.1348,100.272
2127.0991,100.273
2128.0632,100.276
2129.0276,100.281
2129.9917,100.286
2130.9561,100.289
2131.9202,100.287
2132.8845,100.278
2133.8486,100.266
2134.8130,100.253
2135.7771,100.246
2136.7415,100.248
2137.7056,100.257
2138.6699,100.272
2139.6340,100.286
2140.5984,100.297
2141.5625,100.303
2142.5269,100.303
2143.4910,100.302
2144.4553,100.301
2145.4194,100.302
2146.3838,100.305
2147.3479,100.31
2148.3123,100.313
2149.2764,100.315
2150.2407,100.315
2151.2048,100.312
2152.1692,100.308
2153.1333,100.305
2154.0977,100.305
2155.0618,100.307
2156.0261,100.311
2156.9902,100.318
2157.9546,100.324
2158.9187,100.33
2159.8831,100.334
2160.8472,100.337
2161.8115,100.339
2162.7756,100.34
2163.7400,100.34
2164.7041,100.34
2165.6685,100.339
2166.6326,100.337
2167.5969,100.335
2168.5610,100.332
2169.5254,100.33
2170.4895,100.329
2171.4539,100.328
2172.4180,100.328
2173.3823,100.327
2174.3464,100.325
2175.3108,100.322
2176.2749,100.319
2177.2393,100.316
2178.2034,100.313
2179.1677,100.31
2180.1318,100.306
2181.0962,100.302
2182.0603,100.295
2183.0247,100.288
2183.9888,100.282
2184.9531,100.278
2185.9172,100.277
2186.8816,100.279
2187.8457,100.283
2188.8101,100.288
2189.7742,100.294
2190.7385,100.299
2191.7026,100.304
2192.6670,100.307
2193.6311,100.309
2194.5955,100.308
2195.5596,100.306
2196.5239,100.302
2197.4880,100.298
2198.4524,100.293
2199.4165,100.288
2200.3809,100.283
2201.3450,100.277
2202.3093,100.273
2203.2734,100.271
2204.2378,100.271
2205.2019,100.273
2206.1663,100.273
2207.1304,100.273
2208.0947,100.271
2209.0588,100.27
2210.0232,100.269
2210.9873,100.267
2211.9517,100.265
2212.9158,100.259
2213.8801,100.252
2214.8442,100.245
2215.8086,100.24
2216.7727,100.238
2217.7371,100.237
2218.7012,100.236
2219.6655,100.234
2220.6296,100.23
2221.5940,100.225
2222.5581,100.22
2223.5225,100.216
2224.4866,100.213
2225.4509,100.21
2226.4150,100.205
2227.3794,100.198
2228.3435,100.187
2229.3079,100.173
2230.2720,100.159
2231.2363,100.146
2232.2004,100.137
2233.1648,100.13
2234.1289,100.126
2235.0933,100.123
2236.0574,100.119
2237.0217,100.113
2237.9858,100.105
2238.9502,100.095
2239.9143,100.085
2240.8787,100.074
2241.8428,100.062
2242.8071,100.05
2243.7712,100.036
2244.7356,100.023
2245.6997,100.008
2246.6641,99.9931
2247.6282,99.9771
2248.5925,99.9606
2249.5566,99.9438
2250.5210,99.9266
2251.4851,99.9087
2252.4495,99.89
2253.4136,99.8703
2254.3779,99.8496
2255.3420,99.8282
2256.3064,99.8063
2257.2705,99.7843
2258.2349,99.763
2259.1990,99.7428
2260.1633,99.7245
2261.1274,99.7083
2262.0918,99.6944
2263.0559,99.6831
2264.0203,99.6744
2264.9844,99.668
2265.9487,99.6627
2266.9128,99.6566
2267.8772,99.6478
2268.8413,99.635
2269.8057,99.6192
2270.7698,99.6028
2271.7341,99.589
2272.6982,99.58
2273.6626,99.5763
2274.6267,99.5771
2275.5911,99.5811
2276.5552,99.5879
2277.5195,99.5977
2278.4836,99.6106
2279.4480,99.6254
2280.4121,99.6392
2281.3765,99.6474
2282.3406,99.6456
2283.3049,99.6306
2284.2690,99.6015
2285.2334,99.5597
2286.1975,99.5089
2287.1619,99.4534
2288.1260,99.3968
2289.0903,99.3411
2290.0544,99.2863
2291.0188,99.2323
2291.9829,99.1801
2292.9473,99.1325
2293.9114,99.0933
2294.8757,99.0651
2295.8398,99.0488
2296.8042,99.0437
2297.7683,99.0492
2298.7327,99.0673
2299.6968,99.1012
2300.6611,99.1533
2301.6252,99.221
2302.5896,99.2952
2303.5537,99.3616
2304.5181,99.4064
2305.4822,99.4235
2306.4465,99.4191
2307.4106,99.4124
2308.3750,99.4279
2309.3391,99.4849
2310.3035,99.587
2311.2676,99.7192
2312.2319,99.8556
2313.1960,99.9725
2314.1604,100.061
2315.1245,100.131
2316.0889,100.204
2317.0530,100.298
2318.0173,100.418
2318.9814,100.548
2319.9458,100.646
2320.9099,100.659
2321.8743,100.546
2322.8384,100.3
2323.8027,99.9642
2324.7668,99.6199
2325.7312,99.3561
2326.6953,99.2343
2327.6597,99.2634
2328.6238,99.3937
2329.5881,99.5336
2330.5522,99.5889
2331.5166,99.5074
2332.4807,99.3037
2333.4451,99.0444
2334.4092,98.8078
2335.3735,98.6429
2336.3376,98.5508
2337.3020,98.4912
2338.2661,98.4094
2339.2305,98.2713
2340.1946,98.0948
2341.1589,97.967
2342.1230,98.0244
2343.0874,98.3609
2344.0515,98.8425
2345.0159,99.1572
2345.9800,99.1134
2346.9443,98.8041
2347.9084,98.4761
2348.8728,98.3344
2349.8369,98.4433
2350.8013,98.7155
2351.7654,98.9637
2352.7297,99.0097
2353.6938,98.8118
2354.6582,98.479
2355.6223,98.1317
2356.5867,97.7978
2357.5508,97.4736
2358.5151,97.2133
2359.4792,97.103
2360.4436,97.1665
2361.4077,97.3412
2362.3721,97.5531
2363.3362,97.7845
2364.3005,98.0671
2365.2646,98.4296
2366.2290,98.8658
2367.1931,99.3403
2368.1575,99.8105
2369.1216,100.241
2370.0859,100.609
2371.0500,100.901
2372.0144,101.113
2372.9785,101.243
2373.9429,101.289
2374.9070,101.249
2375.8713,101.126
2376.8354,100.929
2377.7998,100.682
2378.7639,100.411
2379.7283,100.147
2380.6924,99.9156
2381.6567,99.7358
2382.6208,99.6154
2383.5852,99.5523
2384.5493,99.536
2385.5137,99.5512
2386.4778,99.5814
2387.4421,99.613
2388.4063,99.637
2389.3706,99.6506
2390.3347,99.6552
2391.2991,99.6548
2392.2632,99.6536
2393.2275,99.6547
2394.1917,99.6595
2395.1560,99.6678
2396.1201,99.679
2397.0845,99.6919
2398.0486,99.7048
2399.0129,99.716
2399.9771,99.7237
2400.9414,99.7263
2401.9055,99.7234
2402.8699,99.7164
2403.8340,99.7083
2404.7983,99.7025
2405.7625,99.7016
2406.7268,99.7058
2407.6909,99.7131
2408.6553,99.7206
2409.6194,99.7258
2410.5837,99.7283
2411.5479,99.7292
2412.5122,99.7304
2413.4763,99.7331
2414.4407,99.7368
2415.4048,99.7403
2416.3691,99.7426
2417.3333,99.7435
2418.2976,99.7441
2419.2617,99.7453
2420.2261,99.7471
2421.1902,99.7488
2422.1545,99.7495
2423.1187,99.7489
2424.0830,99.748
2425.0471,99.7485
2426.0115,99.7519
2426.9756,99.7582
2427.9399,99.7666
2428.9041,99.7757
2429.8684,99.7842
2430.8325,99.7915
2431.7969,99.7975
2432.7610,99.8016
2433.7253,99.8033
2434.6895,99.8023
2435.6538,99.7993
2436.6179,99.7961
2437.5823,99.7945
2438.5464,99.7958
2439.5107,99.8004
2440.4749,99.8072
2441.4392,99.8152
2442.4033,99.8234
2443.3677,99.8315
2444.3318,99.8393
2445.2961,99.846
2446.2603,99.8504
2447.2246,99.8509
2448.1887,99.8468
2449.1531,99.8387
2450.1172,99.8291
2451.0815,99.8216
2452.0457,99.8188
2453.0100,99.8214
2453.9741,99.8272
2454.9385,99.8325
2455.9026,99.8337
2456.8669,99.8299
2457.8311,99.8231
2458.7954,99.8171
2459.7595,99.8151
2460.7239,99.8179
2461.6880,99.8238
2462.6523,99.8297
2463.6165,99.8332
2464.5808,99.8332
2465.5449,99.8301
2466.5093,99.8246
2467.4734,99.8172
2468.4377,99.8083
2469.4019,99.7993
2470.3662,99.7923
2471.3303,99.7896
2472.2947,99.7921
2473.2588,99.7985
2474.2231,99.8056
2475.1873,99.8102
2476.1516,99.8107
2477.1157,99.8077
2478.0801,99.8032
2479.0442,99.7998
2480.0085,99.7987
2480.9727,99.7997
2481.9370,99.8017
2482.9011,99.8033
2483.8655,99.8036
2484.8296,99.8026
2485.7939,99.8008
2486.7581,99.7993
2487.7224,99.7988
2488.6865,99.7998
2489.6509,99.8018
2490.6150,99.8038
2491.5793,99.8049
2492.5435,99.8049
2493.5078,99.8045
2494.4719,99.8053
2495.4363,99.8084
2496.4004,99.8141
2497.3647,99.8208
2498.3289,99.8258
2499.2932,99.8268
2500.2573,99.8232
2501.2217,99.8164
2502.1858,99.8094
2503.1501,99.8051
2504.1143,99.8046
2505.0786,99.807
2506.0427,99.8097
2507.0071,99.8103
2507.9712,99.808
2508.9355,99.8034
2509.8997,99.798
2510.8640,99.7931
2511.8281,99.7889
2512.7925,99.785
2513.7566,99.7812
2514.7209,99.7781
2515.6851,99.7764
2516.6494,99.7766
2517.6135,99.7775
2518.5779,99.7777
2519.5420,99.7756
2520.5063,99.7713
2521.4705,99.7663
2522.4348,99.7629
2523.3989,99.7629
2524.3633,99.7664
2525.3274,99.7719
2526.2917,99.7772
2527.2559,99.7804
2528.2202,99.7807
2529.1843,99.778
2530.1487,99.7733
2531.1128,99.7676
2532.0771,99.7625
2533.0413,99.7591
2534.0056,99.758
2534.9697,99.7592
2535.9341,99.7619
2536.8982,99.7656
2537.8625,99.7696
2538.8267,99.7738
2539.7910,99.7781
2540.7551,99.782
2541.7195,99.7844
2542.6836,99.7841
2543.6479,99.7807
2544.6121,99.775
2545.5764,99.769
2546.5405,99.7651
2547.5049,99.7648
2548.4690,99.768
2549.4333,99.7733
2550.3975,99.7782
2551.3618,99.7809
2552.3259,99.7807
2553.2903,99.7783
2554.2544,99.7754
2555.2188,99.774
2556.1829,99.7755
2557.1472,99.7807
2558.1113,99.7892
2559.0757,99.7998
2560.0398,99.8104
2561.0042,99.8186
2561.9683,99.8226
2562.9326,99.8215
2563.8967,99.8165
2564.8611,99.8104
2565.8252,99.8067
2566.7896,99.8078
2567.7537,99.8137
2568.7180,99.8223
2569.6821,99.8298
2570.6465,99.8332
2571.6106,99.8317
2572.5750,99.8266
2573.5391,99.8205
2574.5034,99.8157
2575.4675,99.8125
2576.4319,99.8104
2577.3960,99.8083
2578.3604,99.8063
2579.3245,99.8057
2580.2888,99.8084
2581.2529,99.8154
2582.2173,99.8256
2583.1814,99.8362
2584.1458,99.8436
2585.1099,99.8454
2586.0742,99.8415
2587.0383,99.8337
2588.0027,99.8251
2588.9668,99.818
2589.9312,99.8134
2590.8953,99.8108
2591.8596,99.8091
2592.8237,99.8072
2593.7881,99.8055
2594.7522,99.8049
2595.7166,99.8063
2596.6807,99.8101
2597.6450,99.8158
2598.6091,99.822
2599.5735,99.8274
2600.5376,99.831
2601.5020,99.8323
2602.4661,99.8314
2603.4304,99.8294
2604.3945,99.8275
2605.3589,99.8272
2606.3230,99.8293
2607.2874,99.8338
2608.2515,99.8396
2609.2158,99.8454
2610.1799,99.8499
2611.1443,99.8528
2612.1084,99.8543
2613.0728,99.855
2614.0369,99.8555
2615.0012,99.8562
2615.9653,99.8569
2616.9297,99.8577
2617.8938,99.8582
2618.8582,99.8583
2619.8223,99.8577
2620.7866,99.857
2621.7507,99.8566
2622.7151,99.8574
2623.6792,99.8598
2624.6436,99.8638
2625.6077,99.8688
2626.5720,99.8739
2627.5361,99.8784
2628.5005,99.882
2629.4646,99.8848
2630.4290,99.8872
2631.3931,99.8897
2632.3574,99.893
2633.3215,99.8971
2634.2859,99.9018
2635.2500,99.906
2636.2144,99.9092
2637.1785,99.9113
2638.1428,99.9136
2639.1069,99.9176
2640.0713,99.9243
2641.0354,99.9331
2641.9998,99.9422
2642.9639,99.9495
2643.9282,99.9539
2644.8923,99.9559
2645.8567,99.9567
2646.8208,99.9571
2647.7852,99.9571
2648.7493,99.9557
2649.7136,99.9529
2650.6777,99.9499
2651.6421,99.949
2652.6062,99.9524
2653.5706,99.9606
2654.5347,99.9724
2655.4990,99.9849
2656.4631,99.995
2657.4275,100.001
2658.3916,100.002
2659.3560,100.001
2660.3201,100.001
2661.2844,100.004
2662.2485,100.012
2663.2129,100.026
2664.1770,100.042
2665.1414,100.059
2666.1055,100.073
2667.0698,100.083
2668.0339,100.091
2668.9983,100.097
2669.9624,100.105
2670.9268,100.114
2671.8909,100.125
2672.8552,100.137
2673.8193,100.148
2674.7837,100.158
2675.7478,100.166
2676.7122,100.172
2677.6763,100.173
2678.6406,100.171
2679.6047,100.166
2680.5691,100.158
2681.5332,100.151
2682.4976,100.146
2683.4617,100.145
2684.4260,100.147
2685.3901,100.151
2686.3545,100.154
2687.3186,100.155
2688.2830,100.154
2689.2471,100.154
2690.2114,100.157
2691.1755,100.165
2692.1399,100.177
2693.1040,100.19
2694.0684,100.202
2695.0325,100.208
2695.9968,100.209
2696.9609,100.206
2697.9253,100.203
2698.8894,100.202
2699.8538,100.202
2700.8179,100.203
2701.7822,100.202
2702.7463,100.198
2703.7107,100.192
2704.6748,100.186
2705.6392,100.182
2706.6033,100.179
2707.5676,100.178
2708.5317,100.178
2709.4961,100.179
2710.4602,100.181
2711.4246,100.183
2712.3887,100.182
2713.3530,100.177
2714.3171,100.165
2715.2815,100.148
2716.2456,100.128
2717.2100,100.11
2718.1741,100.096
2719.1384,100.091
2720.1025,100.093
2721.0669,100.099
2722.0310,100.105
2722.9954,100.107
2723.9595,100.104
2724.9238,100.095
2725.8879,100.084
2726.8523,100.074
2727.8164,100.066
2728.7808,100.061
2729.7449,100.058
2730.7092,100.056
2731.6733,100.055
2732.6377,100.055
2733.6018,100.057
2734.5662,100.06
2735.5303,100.064
2736.4946,100.068
2737.4587,100.072
2738.4231,100.078
2739.3872,100.086
2740.3516,100.095
2741.3157,100.104
2742.2800,100.112
2743.2441,100.12
2744.2085,100.129
2745.1726,100.141
2746.1370,100.155
2747.1011,100.168
2748.0654,100.178
2749.0295,100.181
2749.9939,100.177
2750.9580,100.171
2751.9224,100.163
2752.8865,100.158
2753.8508,100.156
2754.8149,100.155
2755.7793,100.153
2756.7434,100.15
2757.7078,100.145
2758.6719,100.141
2759.6362,100.135
2760.6003,100.128
2761.5647,100.119
2762.5288,100.108
2763.4932,100.095
2764.4573,100.081
2765.4216,100.068
2766.3857,100.056
2767.3501,100.048
2768.3142,100.046
2769.2786,100.046
2770.2427,100.047
2771.2070,100.046
2772.1711,100.038
2773.1355,100.021
2774.0996,99.9942
2775.0640,99.9614
2776.0281,99.9281
2776.9924,99.8987
2777.9565,99.8742
2778.9209,99.8513
2779.8850,99.8257
2780.8494,99.7942
2781.8135,99.7578
2782.7778,99.7206
2783.7419,99.6878
2784.7063,99.6622
2785.6704,99.6428
2786.6348,99.6253
2787.5989,99.6041
2788.5632,99.5759
2789.5273,99.5407
2790.4917,99.502
2791.4558,99.4645
2792.4202,99.4319
2793.3843,99.4048
2794.3486,99.3809
2795.3127,99.3562
2796.2771,99.3269
2797.2412,99.291
2798.2056,99.2487
2799.1697,99.2016
2800.1340,99.1516
2801.0981,99.1002
2802.0625,99.0481
2803.0266,98.9955
2803.9910,98.9425
2804.9551,98.8887
2805.9194,98.8337
2806.8835,98.7764
2807.8479,98.7149
2808.8120,98.6472
2809.7764,98.572
2810.7405,98.4888
2811.7048,98.3989
2812.6689,98.3043
2813.6333,98.2074
2814.5974,98.1089
2815.5618,98.0078
2816.5259,97.9013
2817.4902,97.7854
2818.4543,97.6571
2819.4187,97.5143
2820.3828,97.3569
2821.3472,97.1861
2822.3113,97.003
2823.2756,96.8081
2824.2397,96.6005
2825.2041,96.3786
2826.1682,96.1409
2827.1326,95.8862
2828.0967,95.6143
2829.0610,95.3255
2830.0251,95.0203
2830.9895,94.6993
2831.9536,94.3637
2832.9180,94.0157
2833.8821,93.6588
2834.8464,93.2962
2835.8105,92.9307
2836.7749,92.5633
2837.7390,92.1938
2838.7034,91.8209
2839.6675,91.4417
2840.6318,91.0499
2841.5959,90.6347
2842.5603,90.1837
2843.5244,89.6898
2844.4888,89.1609
2845.4529,88.6262
2846.4172,88.1336
2847.3813,87.7366
2848.3457,87.4743
2849.3098,87.3561
2850.2742,87.358
2851.2383,87.433
2852.2026,87.5302
2853.1667,87.6121
2854.1311,87.6624
2855.0952,87.6829
2856.0596,87.6832
2857.0237,87.671
2857.9880,87.648
2858.9521,87.6102
2859.9165,87.5532
2860.8806,87.475
2861.8450,87.3777
2862.8091,87.2665
2863.7734,87.1474
2864.7375,87.0258
2865.7019,86.9056
2866.6660,86.7893
2867.6304,86.6785
2868.5945,86.5748
2869.5588,86.4802
2870.5229,86.3973
2871.4873,86.3284
2872.4514,86.2747
2873.4158,86.2354
2874.3799,86.2078
2875.3442,86.1884
2876.3083,86.173
2877.2727,86.1571
2878.2368,86.1364
2879.2012,86.1074
2880.1653,86.0687
2881.1296,86.0225
2882.0938,85.975
2883.0581,85.9343
2884.0222,85.9075
2884.9866,85.8969
2885.9507,85.8982
2886.9150,85.9013
2887.8792,85.8945
2888.8435,85.8689
2889.8076,85.8229
2890.7720,85.7619
2891.7361,85.6952
2892.7004,85.6287
2893.6646,85.5602
2894.6289,85.4774
2895.5930,85.3639
2896.5574,85.2083
2897.5215,85.0132
2898.4858,84.7964
2899.4500,84.5847
2900.4143,84.4016
2901.3784,84.2559
2902.3428,84.1391
2903.3069,84.0302
2904.2712,83.9063
2905.2354,83.751
2906.1997,83.557
2907.1638,83.3223
2908.1282,83.0455
2909.0923,82.7229
2910.0566,82.3517
2911.0208,81.9361
2911.9851,81.4929
2912.9492,81.0522
2913.9136,80.6519
2914.8777,80.3279
2915.8420,80.1024
2916.8062,79.9775
2917.7705,79.9357
2918.7346,79.9473
2919.6990,79.9817
2920.6631,80.0166
2921.6274,80.0416
2922.5916,80.0567
2923.5559,80.0671
2924.5200,80.0785
2925.4844,80.0948
2926.4485,80.1187
2927.4128,80.1524
2928.3770,80.1992
2929.3413,80.2629
2930.3054,80.3476
2931.2698,80.4568
2932.2339,80.593
2933.1982,80.7568
2934.1624,80.9468
2935.1267,81.1596
2936.0908,81.3906
2937.0552,81.6355
2938.0193,81.8908
2938.9836,82.1546
2939.9478,82.4255
2940.9121,82.7018
2941.8762,82.9806
2942.8406,83.2575
2943.8047,83.5267
2944.7690,83.7813
2945.7332,84.0142
2946.6975,84.2193
2947.6616,84.3933
2948.6260,84.5367
2949.5901,84.6536
2950.5544,84.7508
2951.5186,84.8353
2952.4829,84.9129
2953.4470,84.9871
2954.4114,85.0602
2955.3755,85.1341
2956.3398,85.2114
2957.3040,85.2952
2958.2683,85.3884
2959.2324,85.4921
2960.1968,85.6056
2961.1609,85.7265
2962.1252,85.8521
2963.0894,85.9807
2964.0537,86.1125
2965.0178,86.2485
2965.9822,86.3902
2966.9463,86.5386
2967.9106,86.695
2968.8748,86.8622
2969.8391,87.0446
2970.8032,87.2478
2971.7676,87.4759
2972.7317,87.7293
2973.6960,88.0044
2974.6602,88.2939
2975.6245,88.5902
2976.5886,88.8872
2977.5530,89.1822
2978.5171,89.4756
2979.4814,89.769
2980.4456,90.0623
2981.4099,90.351
2982.3740,90.6259
2983.3384,90.8767
2984.3025,91.099
2985.2668,91.3011
2986.2310,91.506
2987.1953,91.744
2988.1594,92.0392
2989.1238,92.3961
2990.0879,92.7942
2991.0522,93.1963
2992.0164,93.5648
2992.9807,93.8776
2993.9448,94.1353
2994.9092,94.3557
2995.8733,94.5617
2996.8376,94.7691
2997.8018,94.9825
2998.7661,95.1978
2999.7302,95.4099
3000.6946,95.617
3001.6587,95.8223
3002.6230,96.0311
3003.5872,96.2477
3004.5515,96.4727
3005.5156,96.7022
3006.4800,96.9293
3007.4441,97.1467
3008.4084,97.3494
3009.3726,97.5373
3010.3369,97.7152
3011.3010,97.8906
3012.2654,98.0695
3013.2295,98.2529
3014.1938,98.4361
3015.1580,98.6117
3016.1223,98.774
3017.0864,98.9211
3018.0508,99.0551
3019.0149,99.1792
3019.9792,99.2951
3020.9434,99.4028
3021.9077,99.5018
3022.8718,99.593
3023.8362,99.6785
3024.8003,99.7602
3025.7646,99.7984
3026.7288,99.8271
3027.6931,99.8462
3028.6572,99.8559
3029.6216,99.8606
3030.5857,99.8669
3031.5500,99.88
3032.5142,99.9001
3033.4785,99.9233
3034.4426,99.944
3035.4070,99.9584
3036.3711,99.9658
3037.3354,99.9681
3038.2996,99.9666
3039.2639,99.9609
3040.2280,99.949
3041.1924,99.9285
3042.1565,99.8984
3043.1208,99.8596
3044.0850,99.8149
3045.0493,99.7675
3046.0134,99.7209
3046.9778,99.6769
3047.9419,99.6352
3048.9063,99.5929
3049.8704,99.5459
3050.8347,99.4904
3051.7988,99.4255
3052.7632,99.3543
3053.7273,99.2834
3054.6917,99.2203
3055.6558,99.1706
3056.6201,99.1355
3057.5842,99.111
3058.5486,99.0889
3059.5127,99.0598
3060.4771,99.0164
3061.4412,98.9571
3062.4055,98.8866
3063.3696,98.815
3064.3340,98.7533
3065.2981,98.7085
3066.2625,98.6802
3067.2266,98.6618
3068.1909,98.6439
3069.1550,98.6198
3070.1194,98.5874
3071.0835,98.5484
3072.0479,98.5052
3073.0120,98.4587
3073.9763,98.4075
3074.9404,98.3505
3075.9048,98.2883
3076.8689,98.2244
3077.8333,98.1641
3078.7974,98.112
3079.7617,98.0695
3080.7258,98.0349
3081.6902,98.0045
3082.6543,97.9742
3083.6187,97.9411
3084.5828,97.9034
3085.5471,97.8603
3086.5112,97.8116
3087.4756,97.757
3088.4397,97.6966
3089.4041,97.6308
3090.3682,97.5606
3091.3325,97.4875
3092.2966,97.4132
3093.2610,97.3389
3094.2251,97.265
3095.1895,97.1907
3096.1536,97.1143
3097.1179,97.035
3098.0820,96.9537
3099.0464,96.8734
3100.0105,96.7983
3100.9749,96.7319
3101.9390,96.6753
3102.9033,96.6259
3103.8674,96.5791
3104.8318,96.5296
3105.7959,96.4734
3106.7603,96.4087
3107.7244,96.3353
3108.6887,96.2544
3109.6528,96.1679
3110.6172,96.078
3111.5813,95.9873
3112.5457,95.8979
3113.5098,95.8118
3114.4741,95.7296
3115.4382,95.651
3116.4026,95.5749
3117.3667,95.5007
3118.3311,95.4287
3119.2952,95.3595
3120.2595,95.2937
3121.2236,95.2308
3122.1880,95.1693
3123.1521,95.1072
3124.1165,95.0433
3125.0806,94.9767
3126.0449,94.9073
3127.0090,94.8344
3127.9734,94.7574
3128.9375,94.6763
3129.9019,94.5928
3130.8660,94.5098
3131.8303,94.4307
3132.7944,94.3572
3133.7588,94.2888
3134.7229,94.2234
3135.6873,94.1584
3136.6514,94.0928
3137.6157,94.0264
3138.5798,93.9596
3139.5442,93.8924
3140.5083,93.8237
3141.4727,93.752
3142.4368,93.6765
3143.4011,93.597
3144.3652,93.5144
3145.3296,93.4303
3146.2937,93.3465
3147.2581,93.2652
3148.2222,93.1876
3149.1865,93.1135
3150.1506,93.0411
3151.1150,92.9674
3152.0791,92.8899
3153.0435,92.8076
3154.0076,92.7214
3154.9719,92.6333
3155.9360,92.5448
3156.9004,92.4566
3157.8645,92.3684
3158.8289,92.2804
3159.7930,92.1931
3160.7573,92.1076
3161.7214,92.0245
3162.6858,91.9437
3163.6499,91.8643
3164.6143,91.7851
3165.5784,91.7059
3166.5427,91.6278
3167.5068,91.5521
3168.4712,91.48
3169.4353,91.4687
3170.3997,91.3999
3171.3638,91.3271
3172.3281,91.2465
3173.2922,91.1563
3174.2566,91.0579
3175.2207,90.956
3176.1851,90.8576
3177.1492,90.7689
3178.1135,90.6928
3179.0776,90.6274
3180.0420,90.5671
3181.0061,90.5058
3181.9705,90.4402
3182.9346,90.3707
3183.8989,90.3
3184.8630,90.2302
3185.8274,90.1607
3186.7915,90.0881
3187.7559,90.0092
3188.7200,89.9239
3189.6843,89.8359
3190.6484,89.7508
3191.6128,89.6721
3192.5769,89.5993
3193.5413,89.5281
3194.5054,89.4539
3195.4697,89.375
3196.4338,89.2939
3197.3982,89.2152
3198.3623,89.1432
3199.3267,89.0787
3200.2908,89.02
3201.2551,88.964
3202.2192,88.9079
3203.1836,88.8496
3204.1477,88.7872
3205.1121,88.7192
3206.0762,88.6458
3207.0405,88.5691
3208.0046,88.4928
3208.9690,88.4203
3209.9331,88.3528
3210.8975,88.2888
3211.8616,88.2254
3212.8259,88.1609
3213.7900,88.0961
3214.7544,88.0335
3215.7185,87.9754
3216.6829,87.9222
3217.6470,87.8721
3218.6113,87.8222
3219.5754,87.7701
3220.5398,87.7143
3221.5039,87.6542
3222.4683,87.5899
3223.4324,87.5222
3224.3967,87.4539
3225.3608,87.389
3226.3252,87.3318
3227.2893,87.2846
3228.2537,87.2461
3229.2178,87.2116
3230.1821,87.1747
3231.1462,87.1304
3232.1106,87.0775
3233.0747,87.0183
3234.0391,86.9575
3235.0032,86.8988
3235.9675,86.8433
3236.9316,86.7894
3237.8960,86.7342
3238.8601,86.6762
3239.8245,86.6165
3240.7886,86.5586
3241.7529,86.5068
3242.7170,86.463
3243.6814,86.4261
3244.6455,86.3919
3245.6099,86.3555
3246.5740,86.313
3247.5383,86.2634
3248.5024,86.2079
3249.4668,86.1488
3250.4309,86.0888
3251.3953,86.0307
3252.3594,85.9769
3253.3237,85.9292
3254.2878,85.8883
3255.2522,85.8532
3256.2163,85.8215
3257.1807,85.7902
3258.1448,85.7569
3259.1091,85.7199
3260.0732,85.679
3261.0376,85.6344
3262.0017,85.5869
3262.9661,85.5378
3263.9302,85.4887
3264.8945,85.441
3265.8586,85.3944
3266.8230,85.3475
3267.7871,85.2976
3268.7515,85.2428
3269.7156,85.1834
3270.6799,85.123
3271.6440,85.0671
3272.6084,85.0207
3273.5725,84.9859
3274.5369,84.961
3275.5010,84.9416
3276.4653,84.9226
3277.4294,84.9013
3278.3938,84.8773
3279.3579,84.8521
3280.3223,84.8267
3281.2864,84.801
3282.2507,84.7729
3283.2148,84.7393
3284.1792,84.6984
3285.1433,84.6502
3286.1077,84.5973
3287.0718,84.544
3288.0361,84.4943
3289.0002,84.4506
3289.9646,84.4129
3290.9287,84.3791
3291.8931,84.3477
3292.8572,84.3181
3293.8215,84.2911
3294.7856,84.2671
3295.7500,84.2443
3296.7141,84.2185
3297.6785,84.1857
3298.6426,84.1446
3299.6069,84.0982
3300.5710,84.0522
3301.5354,84.0117
3302.4995,83.978
3303.4639,83.9482
3304.4280,83.9175
3305.3923,83.8832
3306.3564,83.8466
3307.3208,83.8124
3308.2849,83.785
3309.2493,83.7665
3310.2134,83.7549
3311.1777,83.7464
3312.1418,83.7366
3313.1062,83.7227
3314.0703,83.7035
3315.0347,83.6789
3315.9988,83.6495
3316.9631,83.6168
3317.9272,83.5825
3318.8916,83.5488
3319.8557,83.5173
3320.8201,83.489
3321.7842,83.4636
3322.7485,83.4404
3323.7126,83.4182
3324.6770,83.3966
3325.6411,83.376
3326.6055,83.3573
3327.5696,83.3414
3328.5339,83.327
3329.4980,83.3111
3330.4624,83.2899
3331.4265,83.2609
3332.3909,83.2253
3333.3550,83.1885
3334.3193,83.158
3335.2834,83.1394
3336.2478,83.1331
3337.2119,83.1338
3338.1763,83.1342
3339.1404,83.1281
3340.1047,83.1133
3341.0688,83.0911
3342.0332,83.0641
3342.9973,83.0348
3343.9617,83.0055
3344.9258,82.9787
3345.8901,82.9574
3346.8542,82.9433
3347.8186,82.9356
3348.7827,82.9301
3349.7471,82.9215
3350.7112,82.9062
3351.6755,82.8845
3352.6396,82.8604
3353.6040,82.8392
3354.5681,82.825
3355.5325,82.8192
3356.4966,82.8204
3357.4609,82.8256
3358.4250,82.831
3359.3894,82.8322
3360.3535,82.8253
3361.3179,82.8087
3362.2820,82.7841
3363.2463,82.7579
3364.2104,82.7383
3365.1748,82.7324
3366.1389,82.742
3367.1033,82.7627
3368.0674,82.7858
3369.0317,82.8031
3369.9958,82.8106
3370.9602,82.8091
3371.9243,82.8026
3372.8887,82.7952
3373.8528,82.7886
3374.8171,82.7824
3375.7813,82.7759
3376.7456,82.7692
3377.7097,82.7645
3378.6741,82.7646
3379.6382,82.7707
3380.6025,82.7812
3381.5667,82.7924
3382.5310,82.8006
3383.4951,82.8044
3384.4595,82.8059
3385.4236,82.8091
3386.3879,82.8175
3387.3521,82.8325
3388.3164,82.8519
3389.2805,82.8718
3390.2449,82.888
3391.2090,82.8981
3392.1733,82.9031
3393.1375,82.9072
3394.1018,82.9171
3395.0659,82.9392
3396.0303,82.9769
3396.9944,83.0273
3397.9587,83.0813
3398.9229,83.1269
3399.8872,83.1552
3400.8513,83.1647
3401.8157,83.1631
3402.7798,83.1619
3403.7441,83.171
3404.7083,83.1933
3405.6726,83.2249
3406.6367,83.2586
3407.6011,83.2891
3408.5652,83.3156
3409.5295,83.3413
3410.4937,83.3697
3411.4580,83.4019
3412.4221,83.4358
3413.3865,83.4667
3414.3506,83.4906
3415.3149,83.5059
3416.2791,83.5138
3417.2434,83.5188
3418.2075,83.5276
3419.1719,83.5483
3420.1360,83.5872
3421.1003,83.6457
3422.0645,83.7181
3423.0288,83.7949
3423.9929,83.8661
3424.9573,83.9261
3425.9214,83.9754
3426.8857,84.0193
3427.8499,84.0653
3428.8142,84.119
3429.7783,84.182
3430.7427,84.2516
3431.7068,84.3234
3432.6711,84.3936
3433.6353,84.4597
3434.5996,84.52
3435.5637,84.5722
3436.5281,84.6144
3437.4922,84.6458
3438.4565,84.6683
3439.4207,84.6866
3440.3850,84.7066
3441.3491,84.7328
3442.3135,84.767
3443.2776,84.8087
3444.2419,84.857
3445.2061,84.9125
3446.1704,84.9767
3447.1345,85.0503
3448.0989,85.131
3449.0630,85.2137
3450.0273,85.294
3450.9915,85.3693
3451.9558,85.4389
3452.9199,85.5033
3453.8843,85.5633
3454.8484,85.62
3455.8127,85.674
3456.7769,85.7255
3457.7412,85.7749
3458.7053,85.8228
3459.6697,85.8711
3460.6338,85.923
3461.5981,85.9821
3462.5623,86.0512
3463.5266,86.1311
3464.4907,86.2203
3465.4551,86.3147
3466.4192,86.4083
3467.3835,86.4944
3468.3477,86.5672
3469.3120,86.6245
3470.2761,86.6691
3471.2405,86.7093
3472.2046,86.7556
3473.1689,86.8166
3474.1331,86.8944
3475.0974,86.9825
3476.0615,87.0697
3477.0259,87.1454
3477.9900,87.2056
3478.9543,87.254
3479.9185,87.2993
3480.8828,87.3498
3481.8469,87.4084
3482.8113,87.4714
3483.7754,87.5334
3484.7397,87.5929
3485.7039,87.6544
3486.6682,87.7264
3487.6323,87.8148
3488.5967,87.918
3489.5608,88.0263
3490.5251,88.1268
3491.4893,88.2106
3492.4536,88.2771
3493.4177,88.3337
3494.3821,88.3905
3495.3462,88.4537
3496.3105,88.5212
3497.2747,88.5844
3498.2390,88.6357
3499.2031,88.6755
3500.1675,88.7142
3501.1316,88.769
3502.0959,88.8548
3503.0601,88.9722
3504.0244,89.1047
3504.9885,89.2302
3505.9529,89.3364
3506.9170,89.4245
3507.8813,89.5044
3508.8455,89.5875
3509.8098,89.6802
3510.7739,89.7816
3511.7383,89.8858
3512.7024,89.9874
3513.6667,90.0851
3514.6309,90.1795
3515.5952,90.2703
3516.5593,90.3555
3517.5237,90.4323
3518.4878,90.4993
3519.4521,90.5577
3520.4163,90.6102
3521.3806,90.6601
3522.3447,90.7104
3523.3091,90.7641
3524.2732,90.8246
3525.2375,90.8979
3526.2017,90.9923
3527.1660,91.114
3528.1301,91.2617
3529.0945,91.4233
3530.0586,91.5798
3531.0229,91.7166
3531.9871,91.83
3532.9514,91.9267
3533.9155,92.0193
3534.8799,92.1199
3535.8440,92.2343
3536.8083,92.3574
3537.7725,92.4746
3538.7368,92.5699
3539.7009,92.6346
3540.6653,92.6707
3541.6294,92.6907
3542.5938,92.7164
3543.5579,92.7763
3544.5222,92.8942
3545.4863,93.0692
3546.4507,93.2684
3547.4148,93.45
3548.3792,93.5927
3549.3433,93.7044
3550.3076,93.81
3551.2717,93.9346
3552.2361,94.0902
3553.2002,94.2688
3554.1646,94.4484
3555.1287,94.6095
3556.0930,94.7442
3557.0571,94.8537
3558.0215,94.9414
3558.9856,95.0088
3559.9500,95.0574
3560.9141,95.0898
3561.8784,95.1113
3562.8425,95.1275
3563.8069,95.1461
3564.7710,95.1914
3565.7354,95.3156
3566.6995,95.5585
3567.6638,95.8709
3568.6279,96.1416
3569.5923,96.3102
3570.5564,96.3979
3571.5208,96.4542
3572.4849,96.5126
3573.4492,96.5812
3574.4133,96.6542
3575.3777,96.7252
3576.3418,96.7935
3577.3062,96.8625
3578.2703,96.9335
3579.2346,97.0025
3580.1987,97.0621
3581.1631,97.1085
3582.1272,97.1452
3583.0916,97.1782
3584.0557,97.2094
3585.0200,97.2403
3585.9841,97.288
3586.9485,97.3751
3587.9126,97.4831
3588.8770,97.5535
3589.8411,97.5554
3590.8054,97.5114
3591.7695,97.4605
3592.7339,97.4272
3593.6980,97.4165
3594.6624,97.4208
3595.6265,97.4263
3596.5908,97.4235
3597.5549,97.4195
3598.5193,97.436
3599.4834,97.4944
3600.4478,97.5976
3601.4119,97.726
3602.3762,97.8543
3603.3403,97.9703
3604.3047,98.0761
3605.2688,98.1775
3606.2332,98.2787
3607.1973,98.3819
3608.1616,98.4807
3609.1257,98.5563
3610.0901,98.5888
3611.0542,98.574
3612.0186,98.5267
3612.9829,98.4708
3613.9470,98.4266
3614.9114,98.4057
3615.8755,98.4112
3616.8398,98.443
3617.8040,98.5021
3618.7683,98.582
3619.7324,98.6484
3620.6968,98.6508
3621.6609,98.5777
3622.6252,98.4797
3623.5894,98.4306
3624.5537,98.474
3625.5178,98.596
3626.4822,98.7399
3627.4463,98.8615
3628.4106,98.9635
3629.3748,99.0334
3630.3391,99.0254
3631.3032,98.95
3632.2676,98.8778
3633.2317,98.8664
3634.1960,98.9231
3635.1602,99.0151
3636.1245,99.102
3637.0886,99.1608
3638.0530,99.1913
3639.0171,99.2033
3639.9814,99.2037
3640.9456,99.1944
3641.9099,99.1802
3642.8740,99.1747
3643.8384,99.1898
3644.8025,99.2131
3645.7668,99.1935
3646.7310,99.0808
3647.6953,98.9489
3648.6594,99.0148
3649.6238,99.3001
3650.5879,99.5413
3651.5522,99.5984
3652.5164,99.5451
3653.4807,99.4877
3654.4448,99.4704
3655.4092,99.4814
3656.3733,99.4892
3657.3376,99.4705
3658.3018,99.4266
3659.2661,99.3823
3660.2302,99.3639
3661.1946,99.3761
3662.1587,99.4024
3663.1230,99.4255
3664.0872,99.4458
3665.0515,99.4749
3666.0156,99.5109
3666.9800,99.5244
3667.9441,99.4836
3668.9084,99.4043
3669.8726,99.3431
3670.8369,99.3296
3671.8010,99.3473
3672.7654,99.363
3673.7295,99.3493
3674.6938,99.3166
3675.6580,99.3162
3676.6223,99.3582
3677.5864,99.3918
3678.5508,99.3921
3679.5149,99.3784
3680.4792,99.367
3681.4434,99.3551
3682.4077,99.3395
3683.3718,99.3337
3684.3362,99.3584
3685.3003,99.4115
3686.2646,99.4479
3687.2288,99.4046
3688.1931,99.2786
3689.1572,99.1602
3690.1216,99.1227
3691.0857,99.1394
3692.0500,99.161
3693.0142,99.1754
3693.9785,99.1904
3694.9426,99.2122
3695.9070,99.2438
3696.8711,99.2883
3697.8354,99.3462
3698.7996,99.411
3699.7639,99.4705
3700.7280,99.5142
3701.6924,99.5379
3702.6565,99.5402
3703.6208,99.5237
3704.5850,99.5018
3705.5493,99.4912
3706.5134,99.4948
3707.4778,99.4938
3708.4419,99.4712
3709.4063,99.4643
3710.3704,99.5735
3711.3347,99.8357
3712.2988,100.126
3713.2632,100.293
3714.2273,100.309
3715.1917,100.232
3716.1558,100.121
3717.1201,100.005
3718.0842,99.8789
3719.0486,99.7336
3720.0127,99.5717
3720.9771,99.4119
3721.9412,99.2798
3722.9055,99.1958
3723.8696,99.1686
3724.8340,99.1897
3725.7981,99.2357
3726.7625,99.2835
3727.7266,99.327
3728.6909,99.3734
3729.6550,99.4236
3730.6194,99.4569
3731.5835,99.4376
3732.5479,99.3527
3733.5120,99.2616
3734.4763,99.275
3735.4404,99.4129
3736.4048,99.5505
3737.3689,99.5894
3738.3333,99.5741
3739.2974,99.6366
3740.2617,99.8459
3741.2258,100.194
3742.1902,100.569
3743.1543,100.808
3744.1187,100.8
3745.0828,100.57
3746.0471,100.244
3747.0112,99.9567
3747.9756,99.7845
3748.9397,99.7511
3749.9041,99.8611
3750.8682,100.074
3751.8325,100.244
3752.7966,100.245
3753.7610,100.105
3754.7251,99.932
3755.6895,99.8076
3756.6536,99.756
3757.6179,99.7706
3758.5820,99.8336
3759.5464,99.9139
3760.5105,99.9774
3761.4749,100.01
3762.4390,100.02
3763.4033,100.02
3764.3674,100.019
3765.3318,100.02
3766.2959,100.022
3767.2603,100.032
3768.2244,100.053
3769.1887,100.085
3770.1528,100.12
3771.1172,100.142
3772.0813,100.14
3773.0457,100.121
3774.0098,100.104
3774.9741,100.101
3775.9382,100.104
3776.9026,100.097
3777.8667,100.076
3778.8311,100.047
3779.7952,100.013
3780.7595,99.9716
3781.7236,99.9213
3782.6880,99.8734
3783.6521,99.8455
3784.6165,99.8523
3785.5806,99.8969
3786.5449,99.9663
3787.5090,100.039
3788.4734,100.096
3789.4375,100.131
3790.4019,100.148
3791.3660,100.149
3792.3303,100.125
3793.2944,100.065
3794.2588,99.9681
3795.2229,99.8547
3796.1873,99.7635
3797.1514,99.7231
3798.1157,99.7293
3799.0798,99.7488
3800.0442,99.7488
3801.0083,99.7266
3801.9727,99.7018
3802.9368,99.6959
3803.9011,99.7299
3804.8652,99.8162
3805.8296,99.9407
3806.7937,100.057
3807.7581,100.111
3808.7222,100.08
3809.6865,100.006
3810.6506,99.9632
3811.6150,99.9974
3812.5791,100.087
3813.5435,100.156
3814.5076,100.132
3815.4719,100.008
3816.4360,99.8381
3817.4004,99.6894
3818.3645,99.6019
3819.3289,99.5875
3820.2930,99.633
3821.2573,99.6932
3822.2214,99.7065
3823.1858,99.6512
3824.1499,99.565
3825.1143,99.5056
3826.0784,99.5066
3827.0427,99.5651
3828.0068,99.652
3828.9712,99.7325
3829.9353,99.7841
3830.8997,99.8048
3831.8638,99.808
3832.8281,99.8098
3833.7922,99.8135
3834.7566,99.8023
3835.7207,99.7495
3836.6851,99.646
3837.6492,99.5239
3838.6135,99.438
3839.5776,99.4202
3840.5420,99.4658
3841.5061,99.5542
3842.4705,99.6587
3843.4346,99.7445
3844.3989,99.7769
3845.3630,99.7451
3846.3274,99.6804
3847.2915,99.648
3848.2559,99.7137
3849.2200,99.9038
3850.1843,100.175
3851.1484,100.425
3852.1128,100.579
3853.0769,100.655
3854.0413,100.631
3855.0054,100.428
3855.9697,100.102
3856.9338,99.8039
3857.8982,99.6334
3858.8623,99.5974
3859.8267,99.6337
3860.7908,99.6583
3861.7551,99.6241
3862.7192,99.5572
3863.6836,99.5265
3864.6477,99.5713
3865.6121,99.6743
3866.5762,99.7866
3867.5405,99.8575
3868.5046,99.8552
3869.4690,99.7869
3870.4331,99.6988
3871.3975,99.6417
3872.3616,99.6332
3873.3259,99.6604
3874.2900,99.7063
3875.2544,99.7628
3876.2185,99.8227
3877.1829,99.8695
3878.1470,99.8802
3879.1113,99.8441
3880.0754,99.7806
3881.0398,99.7322
3882.0039,99.7344
3882.9683,99.7934
3883.9324,99.884
3884.8967,99.9633
3885.8608,99.9931
3886.8252,99.9617
3887.7893,99.8875
3888.7537,99.7987
3889.7178,99.7157
3890.6821,99.6506
3891.6462,99.612
3892.6106,99.5949
3893.5747,99.5868
3894.5391,99.5891
3895.5032,99.6126
3896.4675,99.6533
3897.4316,99.6864
3898.3960,99.6876
3899.3601,99.6553
3900.3245,99.6082
3901.2886,99.5664
3902.2529,99.5441
3903.2170,99.5507
3904.1814,99.5829
3905.1455,99.6226
3906.1099,99.6545
3907.0740,99.6777
3908.0383,99.699
3909.0024,99.7198
3909.9668,99.7351
3910.9309,99.7398
3911.8953,99.7347
3912.8594,99.7245
3913.8237,99.7127
3914.7878,99.6988
3915.7522,99.683
3916.7163,99.6691
3917.6807,99.6587
3918.6448,99.6438
3919.6091,99.6136
3920.5732,99.5661
3921.5376,99.51
3922.5017,99.4587
3923.4661,99.4245
3924.4302,99.4114
3925.3945,99.4119
3926.3586,99.4123
3927.3230,99.4045
3928.2871,99.3892
3929.2515,99.3739
3930.2156,99.371
3931.1799,99.394
3932.1440,99.4447
3933.1084,99.5078
3934.0725,99.5625
3935.0369,99.5973
3936.0010,99.6116
3936.9653,99.608
3937.9294,99.5874
3938.8938,99.5504
3939.8579,99.5022
3940.8223,99.4562
3941.7864,99.4287
3942.7507,99.4269
3943.7148,99.4418
3944.6792,99.4548
3945.6433,99.4505
3946.6077,99.4252
3947.5718,99.3884
3948.5361,99.3586
3949.5002,99.3521
3950.4646,99.3722
3951.4287,99.4085
3952.3931,99.4468
3953.3572,99.476
3954.3215,99.4911
3955.2856,99.492
3956.2500,99.4824
3957.2141,99.4674
3958.1785,99.4522
3959.1426,99.4417
3960.1069,99.4397
3961.0710,99.4492
3962.0354,99.4703
3962.9995,99.4992
3963.9639,99.5292
3964.9280,99.5525
3965.8923,99.5625
3966.8564,99.555
3967.8208,99.5297
3968.7849,99.4904
3969.7493,99.4448
3970.7134,99.4026
3971.6777,99.373
3972.6418,99.3616
3973.6062,99.3684
3974.5703,99.388
3975.5347,99.4118
3976.4988,99.432
3977.4631,99.4445
3978.4272,99.4498
3979.3916,99.4511
3980.3557,99.4518
3981.3201,99.4531
3982.2842,99.4538
3983.2485,99.4518
3984.2126,99.4463
3985.1770,99.4382
3986.1411,99.4301
3987.1055,99.4234
3988.0696,99.417
3989.0339,99.4069
3989.9980,99.3899
3990.9624,99.3663
3991.9265,99.3424
3992.8909,99.3275
3993.8550,99.3292
3994.8193,99.3481
3995.7834,99.3767
3996.7478,99.4052
3997.7119,99.4235
3998.6763,99.4281
3999.6404,99.4238
4000.6047,99.2271

##### Extended Information
[Comments]
Sample name
Comment
User
Division
Company,HANKYONG

[Detailed Information]
Creation date,4/24/2024 11:51 AM

Data array type,Linear data array
Horizontal axis,Wavenumber [cm-1]
Vertical axis,%T
Start,649.893 cm-1
End,4000.6 cm-1
Data interval,0.964233 cm-1
Data points,3476    

[Measurement Information]
Model Name,FT/IR-4700typeA
Serial Number,D056761788

Accessory,ATR PRO ONE
Accessory S/N,C174761809
Incident angle,45 deg

Measurement Date,4/24/2024 11:50 AM

Light Source,Standard
Detector,TGS
Accumulation,32
Resolution,4 cm-1
Zero Filling,On
Apodization,Cosine
Gain,Auto (4)
Aperture,Auto (7.1 mm)
Scanning Speed,Auto (2 mm/sec)
Filter,Auto (30000 Hz)

