TITLE,
DATA TYPE,INFRARED SPECTRUM
ORIGIN,JASCO
OWNER,
DATE,24/04/24
TIME,11:53:31
SPECTROMETER/DATA SYSTEM,
LOCALE,1033
RESOLUTION,
DELTAX,0.964233
XUNITS,1/CM
YUNITS,TRANSMITTANCE
FIRSTX,  649.8934
LASTX, 4000.6047
NPOINTS,    3476
FIRSTY,    99.93952
MAXY,   101.73978
MINY,    61.43967
XYDATA
649.8934,99.9395
650.8576,99.9569
651.8218,100.011
652.7861,100.099
653.7503,100.205
654.7145,100.312
655.6788,100.397
656.6430,100.436
657.6072,100.417
658.5715,100.35
659.5357,100.274
660.4999,100.233
661.4642,100.247
662.4284,100.285
663.3926,100.267
664.3569,100.084
665.3211,99.607
666.2853,98.7198
667.2496,97.4627
668.2138,96.2689
669.1780,95.7595
670.1423,96.007
671.1065,96.5663
672.0707,97.0619
673.0350,97.3459
673.9992,97.4043
674.9634,97.2858
675.9277,97.0691
676.8919,96.8309
677.8561,96.617
678.8204,96.438
679.7846,96.2907
680.7488,96.1761
681.7131,96.1005
682.6773,96.0652
683.6415,96.0601
684.6058,96.0674
685.5700,96.07
686.5342,96.0567
687.4985,96.0226
688.4627,95.9691
689.4269,95.9035
690.3912,95.839
691.3554,95.7953
692.3196,95.8
693.2839,95.8803
694.2481,96.0374
695.2123,96.2329
696.1766,96.415
697.1408,96.548
698.1050,96.6173
699.0693,96.6217
700.0335,96.568
700.9977,96.4696
701.9620,96.3461
702.9262,96.2204
703.8904,96.1122
704.8547,96.0302
705.8189,95.9659
706.7831,95.8954
707.7474,95.7884
708.7116,95.6218
709.6758,95.3886
710.6401,95.0993
711.6043,94.7747
712.5685,94.4335
713.5328,94.0819
714.4970,93.7098
715.4612,93.3712
716.4255,92.9089
717.3897,92.418
718.3539,91.9466
719.3182,91.5576
720.2824,91.2964
721.2466,91.1584
722.2109,91.0847
723.1751,90.9919
724.1393,90.8143
725.1036,90.5315
726.0678,90.172
727.0320,89.7959
727.9963,89.4652
728.9605,89.2163
729.9247,89.0481
730.8890,88.9279
731.8532,88.8092
732.8174,88.6486
733.7817,88.4167
734.7459,88.1003
735.7101,87.6988
736.6744,87.2183
737.6386,86.6682
738.6028,86.0595
739.5671,85.4078
740.5313,84.7347
741.4955,84.0681
742.4598,83.4387
743.4240,82.874
744.3882,82.3932
745.3525,82.0055
746.3167,81.7109
747.2809,81.5033
748.2452,81.373
749.2094,81.3075
750.1736,81.2926
751.1379,81.3139
752.1021,81.3596
753.0663,81.4215
754.0306,81.4944
754.9948,81.5723
755.9590,81.6449
756.9233,81.6977
757.8875,81.7145
758.8517,81.6846
759.8160,81.607
760.7802,81.4911
761.7444,81.3523
762.7087,81.2044
763.6729,81.0548
764.6371,80.9046
765.6014,80.7531
766.5656,80.6045
767.5298,80.4707
768.4941,80.3687
769.4583,80.3133
770.4225,80.3104
771.3868,80.3531
772.3510,80.424
773.3152,80.4997
774.2795,80.5564
775.2437,80.5732
776.2079,80.5345
777.1722,80.4315
778.1364,80.2634
779.1006,80.038
780.0649,79.7704
781.0291,79.4799
781.9933,79.1864
782.9576,78.9063
783.9218,78.6493
784.8860,78.4172
785.8503,78.2035
786.8145,77.9961
787.7787,77.7815
788.7430,77.5502
789.7072,77.3
790.6714,77.0354
791.6357,76.7638
792.5999,76.4901
793.5641,76.2135
794.5284,75.9284
795.4926,75.6278
796.4568,75.3085
797.4211,74.9735
798.3853,74.6309
799.3495,74.2915
800.3138,73.9648
801.2780,73.6562
802.2422,73.3665
803.2065,73.0932
804.1707,72.8327
805.1349,72.5844
806.0992,72.3519
807.0634,72.1434
808.0276,71.9681
808.9919,71.8331
809.9561,71.7405
810.9203,71.6881
811.8846,71.6718
812.8488,71.6884
813.8130,71.7358
814.7773,71.8101
815.7415,71.903
816.7057,72.0005
817.6700,72.0857
818.6342,72.1452
819.5984,72.1739
820.5627,72.1765
821.5269,72.164
822.4911,72.1465
823.4554,72.1271
824.4196,72.0994
825.3839,72.0519
826.3481,71.9741
827.3123,71.8641
828.2766,71.7302
829.2408,71.5874
830.2050,71.4501
831.1693,71.326
832.1335,71.2137
833.0977,71.1054
834.0620,70.9927
835.0262,70.871
835.9904,70.741
836.9547,70.6066
837.9189,70.4712
838.8831,70.3352
839.8474,70.1956
840.8116,70.0473
841.7758,69.8862
842.7401,69.7117
843.7043,69.5266
844.6685,69.3367
845.6328,69.1472
846.5970,68.9606
847.5612,68.7763
848.5255,68.5927
849.4897,68.4112
850.4539,68.2386
851.4182,68.0864
852.3824,67.9662
853.3466,67.8848
854.3109,67.8402
855.2751,67.823
856.2393,67.8203
857.2036,67.8211
858.1678,67.8188
859.1320,67.8113
860.0963,67.7997
861.0605,67.7865
862.0247,67.7753
862.9890,67.7706
863.9532,67.7777
864.9174,67.8005
865.8817,67.8404
866.8459,67.8944
867.8101,67.9571
868.7744,68.0222
869.7386,68.0854
870.7028,68.1435
871.6671,68.1934
872.6313,68.2293
873.5955,68.2433
874.5598,68.2291
875.5240,68.1865
876.4882,68.1244
877.4525,68.0581
878.4167,68.0033
879.3809,67.9693
880.3452,67.9564
881.3094,67.9597
882.2736,67.9755
883.2379,68.0057
884.2021,68.0567
885.1663,68.1348
886.1306,68.2412
887.0948,68.3719
888.0590,68.5227
889.0233,68.6951
889.9875,68.8988
890.9517,69.1474
891.9160,69.4527
892.8802,69.8182
893.8444,70.2394
894.8087,70.7065
895.7729,71.2096
896.7371,71.7413
897.7014,72.2957
898.6656,72.8672
899.6298,73.448
900.5941,74.029
901.5583,74.5994
902.5225,75.149
903.4868,75.6684
904.4510,76.1504
905.4152,76.5914
906.3795,76.9908
907.3437,77.3503
908.3079,77.6715
909.2722,77.9545
910.2364,78.198
911.2006,78.4019
912.1649,78.5692
913.1291,78.7075
914.0933,78.8262
915.0576,78.9344
916.0218,79.038
916.9860,79.1401
917.9503,79.2421
918.9145,79.3464
919.8787,79.4561
920.8430,79.5745
921.8072,79.7026
922.7714,79.8385
923.7357,79.9778
924.6999,80.115
925.6641,80.2457
926.6284,80.3688
927.5926,80.4887
928.5568,80.6188
929.5211,80.7836
930.4853,81.0201
931.4495,81.3733
932.4138,81.8883
933.3780,82.5978
934.3422,83.5117
935.3065,84.6098
936.2707,85.8438
937.2349,87.1464
938.1992,88.4457
939.1634,89.6807
940.1276,90.8121
941.0919,91.8263
942.0561,92.7297
943.0203,93.539
943.9846,94.2689
944.9488,94.9253
945.9130,95.5051
946.8773,96.0019
947.8415,96.4133
948.8057,96.7454
949.7700,97.0121
950.7342,97.2311
951.6984,97.4181
952.6627,97.5842
953.6269,97.7357
954.5911,97.8758
955.5554,98.0059
956.5196,98.1255
957.4838,98.2317
958.4481,98.3201
959.4123,98.3868
960.3765,98.4309
961.3408,98.4559
962.3050,98.4694
963.2692,98.4802
964.2335,98.4956
965.1977,98.5205
966.1619,98.5572
967.1262,98.6069
968.0904,98.6709
969.0546,98.7499
970.0189,98.8434
970.9831,98.9496
971.9473,99.0653
972.9116,99.1882
973.8758,99.3171
974.8400,99.4517
975.8043,99.5907
976.7685,99.7301
977.7327,99.8623
978.6970,99.9779
979.6612,100.07
980.6254,100.134
981.5897,100.175
982.5539,100.198
983.5181,100.209
984.4824,100.214
985.4466,100.213
986.4108,100.207
987.3751,100.197
988.3393,100.187
989.3035,100.183
990.2678,100.194
991.2320,100.224
992.1962,100.272
993.1605,100.332
994.1247,100.395
995.0889,100.453
996.0532,100.503
997.0174,100.547
997.9816,100.592
998.9459,100.64
999.9101,100.69
1000.8743,100.738
1001.8386,100.784
1002.8028,100.806
1003.7670,100.792
1004.7313,100.728
1005.6955,100.604
1006.6597,100.41
1007.6240,100.142
1008.5882,99.8035
1009.5524,99.4042
1010.5167,98.9562
1011.4809,98.4717
1012.4451,97.9607
1013.4094,97.4297
1014.3736,96.8815
1015.3378,96.316
1016.3021,95.732
1017.2663,95.1298
1018.2305,94.5132
1019.1948,93.887
1020.1590,93.2503
1021.1232,92.5904
1022.0875,91.8828
1023.0517,91.1023
1024.0160,90.2405
1024.9802,89.3183
1025.9445,88.3837
1026.9087,87.4932
1027.8729,86.687
1028.8372,85.9718
1029.8014,85.3226
1030.7656,84.7013
1031.7299,84.0803
1032.6941,83.4572
1033.6583,82.8549
1034.6226,82.3092
1035.5868,81.852
1036.5510,81.4989
1037.5153,81.2456
1038.4795,81.0708
1039.4437,80.9439
1040.4080,80.8346
1041.3722,80.7209
1042.3364,80.5928
1043.3007,80.4523
1044.2649,80.3078
1045.2291,80.1686
1046.1934,80.0415
1047.1576,79.9322
1048.1218,79.848
1049.0861,79.7998
1050.0503,79.7979
1051.0145,79.8455
1051.9788,79.9333
1052.9430,80.0415
1053.9072,80.1493
1054.8715,80.2475
1055.8357,80.3447
1056.7999,80.4604
1057.7642,80.6056
1058.7284,80.7633
1059.6926,80.8801
1060.6569,80.8814
1061.6211,80.7028
1062.5853,80.3239
1063.5496,79.7834
1064.5138,79.1643
1065.4780,78.5561
1066.4423,78.0127
1067.4065,77.5299
1068.3707,77.0536
1069.3350,76.5112
1070.2992,75.8482
1071.2634,75.0484
1072.2277,74.1319
1073.1919,73.1373
1074.1561,72.1019
1075.1204,71.0511
1076.0846,69.9992
1077.0488,68.9559
1078.0131,67.9314
1078.9773,66.9371
1079.9415,65.9843
1080.9058,65.0829
1081.8700,64.2425
1082.8342,63.4749
1083.7985,62.7957
1084.7627,62.2255
1085.7269,61.7896
1086.6912,61.5177
1087.6554,61.4397
1088.6196,61.5775
1089.5839,61.9349
1090.5481,62.4907
1091.5123,63.1995
1092.4766,64.0051
1093.4408,64.8582
1094.4050,65.7322
1095.3693,66.6274
1096.3335,67.5625
1097.2977,68.5592
1098.2620,69.6272
1099.2262,70.7582
1100.1904,71.929
1101.1547,73.1092
1102.1189,74.2702
1103.0831,75.3901
1104.0474,76.4549
1105.0116,77.4585
1105.9758,78.4018
1106.9401,79.2918
1107.9043,80.1402
1108.8685,80.9614
1109.8328,81.77
1110.7970,82.5797
1111.7612,83.4025
1112.7255,84.2484
1113.6897,85.1243
1114.6539,86.0318
1115.6182,86.9657
1116.5824,87.9145
1117.5466,88.8632
1118.5109,89.7973
1119.4751,90.7064
1120.4393,91.5853
1121.4036,92.4325
1122.3678,93.2474
1123.3320,94.0284
1124.2963,94.7716
1125.2605,95.4717
1126.2247,96.1238
1127.1890,96.7245
1128.1532,97.2722
1129.1174,97.7663
1130.0817,98.2056
1131.0459,98.5877
1132.0101,98.9079
1132.9744,99.1604
1133.9386,99.3403
1134.9028,99.4441
1135.8671,99.4716
1136.8313,99.4249
1137.7955,99.307
1138.7598,99.1218
1139.7240,98.8738
1140.6882,98.5698
1141.6525,98.2209
1142.6167,97.8413
1143.5809,97.4458
1144.5452,97.0613
1145.5094,96.7058
1146.4736,96.3919
1147.4379,96.1251
1148.4021,95.9037
1149.3663,95.7212
1150.3306,95.5675
1151.2948,95.4316
1152.2590,95.3023
1153.2233,95.1692
1154.1875,95.0227
1155.1517,94.8554
1156.1160,94.6624
1157.0802,94.443
1158.0444,94.1991
1159.0087,93.9339
1159.9729,93.6493
1160.9371,93.3446
1161.9014,93.0172
1162.8656,92.6651
1163.8298,92.2888
1164.7941,91.8924
1165.7583,91.4818
1166.7225,91.0626
1167.6868,90.638
1168.6510,90.2094
1169.6152,89.777
1170.5795,89.3424
1171.5437,88.9086
1172.5079,88.479
1173.4722,88.0561
1174.4364,87.64
1175.4006,87.2286
1176.3649,86.8187
1177.3291,86.4084
1178.2933,85.9977
1179.2576,85.5883
1180.2218,85.1824
1181.1860,84.7809
1182.1503,84.3833
1183.1145,83.9888
1184.0787,83.5978
1185.0430,83.2132
1186.0072,82.8399
1186.9714,82.4829
1187.9357,82.146
1188.8999,81.8306
1189.8641,81.5364
1190.8284,81.2624
1191.7926,81.0085
1192.7568,80.775
1193.7211,80.5628
1194.6853,80.3729
1195.6495,80.2065
1196.6138,80.0639
1197.5780,79.9444
1198.5422,79.8446
1199.5065,79.8118
1200.4707,79.7258
1201.4349,79.6392
1202.3992,79.5492
1203.3634,79.4565
1204.3276,79.3644
1205.2919,79.2757
1206.2561,79.1908
1207.2203,79.1076
1208.1846,79.0225
1209.1488,78.9337
1210.1130,78.8414
1211.0773,78.748
1212.0415,78.6554
1213.0057,78.5638
1213.9700,78.471
1214.9342,78.3739
1215.8984,78.2698
1216.8627,78.158
1217.8269,78.0389
1218.7911,77.9121
1219.7554,77.7759
1220.7196,77.6279
1221.6838,77.4663
1222.6481,77.2912
1223.6123,77.1051
1224.5765,76.9113
1225.5408,76.7116
1226.5050,76.5032
1227.4692,76.2757
1228.4335,76.0117
1229.3977,75.6917
1230.3619,75.3044
1231.3262,74.8587
1232.2904,74.3927
1233.2546,73.9728
1234.2189,73.6801
1235.1831,73.5896
1236.1473,73.7503
1237.1116,74.1754
1238.0758,74.8447
1239.0400,75.7152
1240.0043,76.7314
1240.9685,77.829
1241.9327,78.9345
1242.8970,79.967
1243.8612,80.8502
1244.8254,81.5298
1245.7897,81.9897
1246.7539,82.2532
1247.7181,82.3709
1248.6824,82.3993
1249.6466,82.3835
1250.6108,82.3498
1251.5751,82.3085
1252.5393,82.2616
1253.5035,82.2093
1254.4678,82.153
1255.4320,82.096
1256.3962,82.0434
1257.3605,82.0022
1258.3247,81.9805
1259.2889,81.9839
1260.2532,82.0122
1261.2174,82.0577
1262.1816,82.1068
1263.1459,82.1444
1264.1101,82.1585
1265.0743,82.1409
1266.0386,82.0864
1267.0028,81.9913
1267.9670,81.8531
1268.9313,81.6719
1269.8955,81.4529
1270.8597,81.2073
1271.8240,80.9515
1272.7882,80.7034
1273.7524,80.4785
1274.7167,80.2874
1275.6809,80.1353
1276.6451,80.0231
1277.6094,79.9483
1278.5736,79.9066
1279.5378,79.8928
1280.5021,79.902
1281.4663,79.9313
1282.4305,79.9807
1283.3948,80.0538
1284.3590,80.1567
1285.3232,80.2965
1286.2875,80.4795
1287.2517,80.7085
1288.2159,80.9816
1289.1802,81.2911
1290.1444,81.6256
1291.1086,81.9721
1292.0729,82.3181
1293.0371,82.6534
1294.0013,82.9693
1294.9656,83.2591
1295.9298,83.5183
1296.8940,83.745
1297.8583,83.9409
1298.8225,84.1107
1299.7867,84.2612
1300.7510,84.3997
1301.7152,84.5323
1302.6794,84.6644
1303.6437,84.8012
1304.6079,84.946
1305.5721,85.0995
1306.5364,85.2587
1307.5006,85.418
1308.4648,85.5724
1309.4291,85.7208
1310.3933,85.8672
1311.3575,86.0182
1312.3218,86.178
1313.2860,86.3458
1314.2502,86.5157
1315.2145,86.6822
1316.1787,86.8444
1317.1429,87.0066
1318.1072,87.1748
1319.0714,87.3503
1320.0356,87.5275
1320.9999,87.6967
1321.9641,87.8501
1322.9283,87.9862
1323.8926,88.1086
1324.8568,88.2231
1325.8210,88.3337
1326.7853,88.4414
1327.7495,88.5451
1328.7137,88.6428
1329.6780,88.7332
1330.6422,88.8145
1331.6064,88.8824
1332.5707,88.93
1333.5349,88.9475
1334.4991,88.9261
1335.4634,88.8633
1336.4276,88.7688
1337.3918,88.6716
1338.3561,88.6156
1339.3203,88.6354
1340.2845,88.7258
1341.2488,88.842
1342.2130,88.9333
1343.1772,88.9697
1344.1415,88.9449
1345.1057,88.8679
1346.0699,88.7553
1347.0342,88.6263
1347.9984,88.4973
1348.9626,88.3763
1349.9269,88.2623
1350.8911,88.1497
1351.8553,88.0342
1352.8196,87.9183
1353.7838,87.8102
1354.7480,87.7182
1355.7123,87.644
1356.6765,87.5794
1357.6407,87.512
1358.6050,87.4333
1359.5692,87.3464
1360.5334,87.2713
1361.4977,87.2411
1362.4619,87.2768
1363.4261,87.3604
1364.3904,87.4445
1365.3546,87.4919
1366.3188,87.4932
1367.2831,87.4573
1368.2473,87.3955
1369.2115,87.3121
1370.1758,87.2032
1371.1400,87.0616
1372.1042,86.886
1373.0685,86.6914
1374.0327,86.5078
1374.9969,86.3616
1375.9612,86.2541
1376.9254,86.169
1377.8896,86.098
1378.8539,86.0533
1379.8181,86.0609
1380.7823,86.1432
1381.7466,86.3064
1382.7108,86.5435
1383.6750,86.8496
1384.6393,87.2314
1385.6035,87.6986
1386.5677,88.232
1387.5320,88.7553
1388.4962,89.1612
1389.4604,89.3882
1390.4247,89.4536
1391.3889,89.4199
1392.3531,89.3544
1393.3174,89.3152
1394.2816,89.3475
1395.2458,89.4693
1396.2101,89.6535
1397.1743,89.8377
1398.1385,89.9609
1399.1028,89.9922
1400.0670,89.933
1401.0313,89.8062
1401.9955,89.643
1402.9597,89.4749
1403.9240,89.3294
1404.8882,89.225
1405.8524,89.1625
1406.8167,89.1259
1407.7809,89.0992
1408.7451,89.0798
1409.7094,89.0752
1410.6736,89.0892
1411.6378,89.1119
1412.6021,89.1244
1413.5663,89.1148
1414.5305,89.0855
1415.4948,89.0462
1416.4590,89.0051
1417.4232,88.9717
1418.3875,88.9537
1419.3517,88.9267
1420.3159,88.8371
1421.2802,88.6596
1422.2444,88.4187
1423.2086,88.1553
1424.1729,87.8971
1425.1371,87.6493
1426.1013,87.3988
1427.0656,87.122
1428.0298,86.7977
1428.9940,86.4236
1429.9583,86.0274
1430.9225,85.6568
1431.8867,85.3525
1432.8510,85.1293
1433.8152,84.9754
1434.7794,84.8639
1435.7437,84.7733
1436.7079,84.6918
1437.6721,84.5942
1438.6364,84.45
1439.6006,84.2623
1440.5648,84.0647
1441.5291,83.8864
1442.4933,83.7344
1443.4575,83.5976
1444.4218,83.4607
1445.3860,83.3157
1446.3502,83.1636
1447.3145,83.0079
1448.2787,82.8442
1449.2429,82.6592
1450.2072,82.4473
1451.1714,82.2256
1452.1356,82.0262
1453.0999,81.8685
1454.0641,81.7343
1455.0283,81.5807
1455.9926,81.4295
1456.9568,81.4347
1457.9210,81.6347
1458.8853,81.8019
1459.8495,81.8107
1460.8137,81.7386
1461.7780,81.6947
1462.7422,81.7412
1463.7064,81.9017
1464.6707,82.1696
1465.6349,82.4944
1466.5991,82.8073
1467.5634,83.0898
1468.5276,83.3843
1469.4918,83.7476
1470.4561,84.2252
1471.4203,84.8624
1472.3845,85.6983
1473.3488,86.6705
1474.3130,87.5727
1475.2772,88.239
1476.2415,88.6715
1477.2057,88.9596
1478.1699,89.1879
1479.1342,89.413
1480.0984,89.6685
1481.0626,89.9665
1482.0269,90.2938
1482.9911,90.6166
1483.9553,90.8973
1484.9196,91.1089
1485.8838,91.2395
1486.8480,91.3008
1487.8123,91.3561
1488.7765,91.5135
1489.7407,91.8044
1490.7050,92.107
1491.6692,92.2967
1492.6334,92.3609
1493.5977,92.3423
1494.5619,92.2627
1495.5261,92.1129
1496.4904,91.8912
1497.4546,91.6329
1498.4188,91.3706
1499.3831,91.1015
1500.3473,90.8363
1501.3115,90.6259
1502.2758,90.5209
1503.2400,90.518
1504.2042,90.5232
1505.1685,90.3659
1506.1327,89.978
1507.0969,89.6526
1508.0612,89.6474
1509.0254,89.7315
1509.9896,89.7104
1510.9539,89.6171
1511.9181,89.5252
1512.8823,89.471
1513.8466,89.4702
1514.8108,89.5435
1515.7750,89.717
1516.7393,89.9997
1517.7035,90.3736
1518.6677,90.8194
1519.6320,91.3415
1520.5962,91.9499
1521.5604,92.6075
1522.5247,93.2305
1523.4889,93.7729
1524.4531,94.274
1525.4174,94.8004
1526.3816,95.3619
1527.3458,95.8994
1528.3101,96.3487
1529.2743,96.6999
1530.2385,96.9964
1531.2028,97.3003
1532.1670,97.6597
1533.1312,98.0735
1534.0955,98.4792
1535.0597,98.8166
1536.0239,99.0886
1536.9882,99.3177
1537.9524,99.4595
1538.9166,99.3996
1539.8809,99.1509
1540.8451,99.0594
1541.8093,99.3502
1542.7736,99.7708
1543.7378,100.098
1544.7020,100.307
1545.6663,100.421
1546.6305,100.454
1547.5947,100.423
1548.5590,100.357
1549.5232,100.284
1550.4874,100.208
1551.4517,100.12
1552.4159,100.015
1553.3801,99.9146
1554.3444,99.869
1555.3086,99.8864
1556.2728,99.9311
1557.2371,99.9672
1558.2013,100.094
1559.1655,100.328
1560.1298,100.309
1561.0940,99.8907
1562.0582,99.2941
1563.0225,98.7433
1563.9867,98.3353
1564.9509,98.0685
1565.9152,97.8867
1566.8794,97.7143
1567.8436,97.4924
1568.8079,97.2099
1569.7721,96.8958
1570.7363,96.5843
1571.7006,96.2986
1572.6648,96.0425
1573.6290,95.78
1574.5933,95.4419
1575.5575,94.9954
1576.5217,94.5065
1577.4860,94.0563
1578.4502,93.6433
1579.4144,93.2393
1580.3787,92.8362
1581.3429,92.4289
1582.3071,92.0058
1583.2714,91.559
1584.2356,91.0921
1585.1998,90.6123
1586.1641,90.1226
1587.1283,89.6227
1588.0925,89.1143
1589.0568,88.6036
1590.0210,88.0981
1590.9852,87.6025
1591.9495,87.1205
1592.9137,86.6613
1593.8779,86.2422
1594.8422,85.8819
1595.8064,85.5883
1596.7706,85.3519
1597.7349,85.1522
1598.6991,84.9705
1599.6633,84.7985
1600.6276,84.6398
1601.5918,84.5051
1602.5560,84.4036
1603.5203,84.3362
1604.4845,84.2969
1605.4487,84.2824
1606.4130,84.2993
1607.3772,84.3629
1608.3414,84.4835
1609.3057,84.6488
1610.2699,84.8255
1611.2341,84.9866
1612.1984,85.1337
1613.1626,85.2883
1614.1268,85.4743
1615.0911,85.7161
1616.0553,86.027
1617.0195,86.3542
1617.9838,86.5909
1618.9480,86.7017
1619.9122,86.7582
1620.8765,86.8565
1621.8407,87.0535
1622.8049,87.3516
1623.7692,87.7048
1624.7334,88.0513
1625.6976,88.3649
1626.6619,88.6663
1627.6261,88.9821
1628.5903,89.306
1629.5546,89.6104
1630.5188,89.8857
1631.4830,90.1522
1632.4473,90.4291
1633.4115,90.7068
1634.3757,90.9721
1635.3400,91.2672
1636.3042,91.6245
1637.2684,91.9417
1638.2327,92.1208
1639.1969,92.1962
1640.1611,92.2527
1641.1254,92.346
1642.0896,92.4873
1643.0538,92.646
1644.0181,92.7532
1644.9823,92.7405
1645.9465,92.628
1646.9108,92.5403
1647.8750,92.5667
1648.8392,92.714
1649.8035,92.9737
1650.7677,93.2982
1651.7319,93.5639
1652.6962,93.6696
1653.6604,93.6336
1654.6246,93.4092
1655.5889,92.9666
1656.5531,92.458
1657.5173,92.0442
1658.4816,91.7786
1659.4458,91.6197
1660.4100,91.485
1661.3743,91.3153
1662.3385,91.1097
1663.3027,90.8975
1664.2670,90.6975
1665.2312,90.5148
1666.1954,90.3357
1667.1597,90.1209
1668.1239,89.8326
1669.0881,89.4949
1670.0524,89.1988
1671.0166,89.0085
1671.9808,88.9116
1672.9451,88.8648
1673.9093,88.8215
1674.8735,88.7273
1675.8378,88.5321
1676.8020,88.225
1677.7662,87.8577
1678.7305,87.5218
1679.6947,87.2938
1680.6589,87.1889
1681.6232,87.151
1682.5874,87.0975
1683.5516,87.0007
1684.5159,86.8634
1685.4801,86.6308
1686.4443,86.2816
1687.4086,85.8864
1688.3728,85.5307
1689.3370,85.2617
1690.3013,85.0869
1691.2655,84.9859
1692.2297,84.9159
1693.1940,84.8164
1694.1582,84.625
1695.1224,84.315
1696.0867,83.9436
1697.0509,83.6545
1698.0151,83.5822
1698.9794,83.7086
1699.9436,83.8482
1700.9078,83.8185
1701.8721,83.5952
1702.8363,83.2918
1703.8005,83.0521
1704.7648,82.9725
1705.7290,83.0716
1706.6932,83.2916
1707.6575,83.5401
1708.6217,83.7551
1709.5859,83.9343
1710.5502,84.1096
1711.5144,84.3076
1712.4786,84.5313
1713.4429,84.7699
1714.4071,85.0373
1715.3713,85.4253
1716.3356,86.0823
1717.2998,86.9873
1718.2640,87.8329
1719.2283,88.3706
1720.1925,88.6437
1721.1567,88.8302
1722.1210,89.0691
1723.0852,89.4085
1724.0494,89.8201
1725.0137,90.2377
1725.9779,90.6027
1726.9421,90.8942
1727.9064,91.1312
1728.8706,91.3548
1729.8348,91.6054
1730.7991,91.9128
1731.7633,92.3005
1732.7275,92.7804
1733.6918,93.2945
1734.6560,93.6871
1735.6202,93.855
1736.5845,93.8618
1737.5487,93.8456
1738.5129,93.9003
1739.4772,94.0397
1740.4414,94.2179
1741.4056,94.3722
1742.3699,94.4668
1743.3341,94.5104
1744.2983,94.5387
1745.2626,94.5849
1746.2268,94.6695
1747.1910,94.812
1748.1553,95.0467
1749.1195,95.4011
1750.0837,95.8318
1751.0480,96.2171
1752.0122,96.4602
1752.9764,96.565
1753.9407,96.5999
1754.9049,96.6324
1755.8691,96.6971
1756.8334,96.7961
1757.7976,96.9165
1758.7618,97.0483
1759.7261,97.1926
1760.6903,97.355
1761.6545,97.5313
1762.6188,97.7014
1763.5830,97.8445
1764.5472,97.9587
1765.5115,98.0595
1766.4757,98.1612
1767.4399,98.2622
1768.4042,98.3464
1769.3684,98.401
1770.3326,98.4416
1771.2969,98.5173
1772.2611,98.6637
1773.2253,98.8427
1774.1896,98.9765
1775.1538,99.0367
1776.1180,99.0575
1777.0823,99.0863
1778.0465,99.1469
1779.0107,99.2374
1779.9750,99.3464
1780.9392,99.4658
1781.9034,99.5927
1782.8677,99.7217
1783.8319,99.8382
1784.7961,99.9213
1785.7604,99.9587
1786.7246,99.96
1787.6888,99.9519
1788.6531,99.9555
1789.6173,99.9688
1790.5815,99.9758
1791.5458,99.9734
1792.5100,99.9714
1793.4742,99.9604
1794.4385,99.9236
1795.4027,99.8743
1796.3669,99.8463
1797.3312,99.8595
1798.2954,99.9084
1799.2596,99.9744
1800.2239,100.042
1801.1881,100.101
1802.1523,100.143
1803.1166,100.163
1804.0808,100.161
1805.0450,100.142
1806.0093,100.11
1806.9735,100.068
1807.9377,100.018
1808.9020,99.9737
1809.8662,99.9515
1810.8304,99.9623
1811.7947,99.9999
1812.7589,100.046
1813.7231,100.087
1814.6874,100.116
1815.6516,100.132
1816.6158,100.134
1817.5801,100.123
1818.5443,100.102
1819.5085,100.077
1820.4728,100.058
1821.4370,100.051
1822.4012,100.053
1823.3655,100.054
1824.3297,100.042
1825.2939,100.006
1826.2582,99.9492
1827.2224,99.8841
1828.1866,99.8368
1829.1509,99.8426
1830.1151,99.9043
1831.0793,99.9761
1832.0436,100.017
1833.0078,100.018
1833.9720,99.9952
1834.9363,99.9718
1835.9005,99.9573
1836.8647,99.9517
1837.8290,99.9534
1838.7932,99.9665
1839.7574,99.9999
1840.7217,100.055
1841.6859,100.116
1842.6501,100.156
1843.6144,100.162
1844.5786,100.145
1845.5428,100.113
1846.5071,100.075
1847.4713,100.046
1848.4355,100.043
1849.3998,100.072
1850.3640,100.119
1851.3282,100.164
1852.2925,100.192
1853.2567,100.201
1854.2209,100.196
1855.1852,100.186
1856.1494,100.173
1857.1136,100.162
1858.0779,100.156
1859.0421,100.159
1860.0063,100.169
1860.9706,100.177
1861.9348,100.173
1862.8990,100.146
1863.8633,100.098
1864.8275,100.032
1865.7917,99.9587
1866.7560,99.8983
1867.7202,99.8873
1868.6844,99.951
1869.6487,100.064
1870.6129,100.167
1871.5771,100.225
1872.5414,100.246
1873.5056,100.254
1874.4698,100.26
1875.4341,100.268
1876.3983,100.274
1877.3625,100.274
1878.3268,100.271
1879.2910,100.268
1880.2552,100.264
1881.2195,100.259
1882.1837,100.249
1883.1479,100.236
1884.1122,100.22
1885.0764,100.207
1886.0406,100.198
1887.0049,100.196
1887.9691,100.198
1888.9333,100.203
1889.8976,100.207
1890.8618,100.202
1891.8260,100.187
1892.7903,100.166
1893.7545,100.149
1894.7188,100.145
1895.6830,100.158
1896.6472,100.184
1897.6115,100.21
1898.5757,100.229
1899.5399,100.235
1900.5042,100.231
1901.4684,100.222
1902.4326,100.211
1903.3969,100.197
1904.3611,100.175
1905.3253,100.143
1906.2896,100.104
1907.2538,100.064
1908.2180,100.04
1909.1823,100.039
1910.1465,100.063
1911.1107,100.097
1912.0750,100.129
1913.0392,100.153
1914.0034,100.172
1914.9677,100.188
1915.9319,100.202
1916.8961,100.206
1917.8604,100.193
1918.8246,100.158
1919.7888,100.103
1920.7531,100.044
1921.7173,100.004
1922.6815,99.9989
1923.6458,100.03
1924.6100,100.082
1925.5742,100.132
1926.5385,100.167
1927.5027,100.183
1928.4669,100.186
1929.4312,100.183
1930.3954,100.179
1931.3596,100.177
1932.3239,100.178
1933.2881,100.181
1934.2523,100.188
1935.2166,100.196
1936.1808,100.201
1937.1450,100.2
1938.1093,100.191
1939.0735,100.173
1940.0377,100.147
1941.0020,100.119
1941.9662,100.096
1942.9304,100.088
1943.8947,100.096
1944.8589,100.114
1945.8231,100.139
1946.7874,100.167
1947.7516,100.197
1948.7158,100.225
1949.6801,100.245
1950.6443,100.254
1951.6085,100.253
1952.5728,100.247
1953.5370,100.242
1954.5012,100.243
1955.4655,100.25
1956.4297,100.26
1957.3939,100.27
1958.3582,100.278
1959.3224,100.282
1960.2866,100.283
1961.2509,100.278
1962.2151,100.267
1963.1793,100.247
1964.1436,100.222
1965.1078,100.198
1966.0720,100.187
1967.0363,100.194
1968.0005,100.219
1968.9647,100.253
1969.9290,100.284
1970.8932,100.304
1971.8574,100.312
1972.8217,100.313
1973.7859,100.311
1974.7501,100.31
1975.7144,100.31
1976.6786,100.312
1977.6428,100.313
1978.6071,100.313
1979.5713,100.312
1980.5355,100.311
1981.4998,100.309
1982.4640,100.304
1983.4282,100.294
1984.3925,100.278
1985.3567,100.256
1986.3209,100.23
1987.2852,100.204
1988.2494,100.18
1989.2136,100.161
1990.1779,100.147
1991.1421,100.143
1992.1063,100.147
1993.0706,100.158
1994.0348,100.171
1994.9990,100.179
1995.9633,100.182
1996.9275,100.18
1997.8917,100.174
1998.8560,100.169
1999.8202,100.166
2000.7844,100.166
2001.7487,100.166
2002.7129,100.163
2003.6771,100.154
2004.6414,100.138
2005.6056,100.119
2006.5698,100.101
2007.5341,100.087
2008.4983,100.08
2009.4625,100.079
2010.4268,100.081
2011.3910,100.079
2012.3552,100.068
2013.3195,100.047
2014.2837,100.018
2015.2479,99.987
2016.2122,99.9639
2017.1764,99.955
2018.1406,99.961
2019.1049,99.9761
2020.0691,99.9926
2021.0333,100.005
2021.9976,100.01
2022.9618,100.012
2023.9260,100.013
2024.8903,100.016
2025.8545,100.02
2026.8187,100.025
2027.7830,100.028
2028.7472,100.029
2029.7114,100.026
2030.6757,100.022
2031.6399,100.017
2032.6041,100.014
2033.5684,100.016
2034.5326,100.022
2035.4968,100.032
2036.4611,100.04
2037.4253,100.044
2038.3895,100.042
2039.3538,100.037
2040.3180,100.032
2041.2822,100.033
2042.2465,100.043
2043.2107,100.06
2044.1749,100.08
2045.1392,100.098
2046.1034,100.111
2047.0676,100.119
2048.0320,100.122
2048.9961,100.124
2049.9604,100.127
2050.9246,100.13
2051.8889,100.136
2052.8530,100.142
2053.8174,100.147
2054.7815,100.15
2055.7458,100.151
2056.7100,100.15
2057.6743,100.148
2058.6384,100.144
2059.6028,100.139
2060.5669,100.13
2061.5313,100.12
2062.4954,100.109
2063.4597,100.102
2064.4238,100.103
2065.3882,100.112
2066.3523,100.127
2067.3167,100.143
2068.2808,100.156
2069.2451,100.165
2070.2092,100.17
2071.1736,100.172
2072.1377,100.174
2073.1021,100.176
2074.0662,100.177
2075.0305,100.177
2075.9946,100.175
2076.9590,100.172
2077.9231,100.17
2078.8875,100.168
2079.8516,100.167
2080.8159,100.168
2081.7800,100.171
2082.7444,100.174
2083.7085,100.179
2084.6729,100.183
2085.6370,100.184
2086.6013,100.183
2087.5654,100.18
2088.5298,100.176
2089.4939,100.173
2090.4583,100.172
2091.4224,100.174
2092.3867,100.177
2093.3508,100.181
2094.3152,100.186
2095.2793,100.191
2096.2437,100.196
2097.2078,100.2
2098.1721,100.201
2099.1362,100.199
2100.1006,100.195
2101.0647,100.191
2102.0291,100.189
2102.9932,100.189
2103.9575,100.189
2104.9216,100.189
2105.8860,100.189
2106.8501,100.188
2107.8145,100.186
2108.7786,100.183
2109.7429,100.179
2110.7070,100.174
2111.6714,100.17
2112.6355,100.166
2113.5999,100.165
2114.5640,100.168
2115.5283,100.175
2116.4924,100.183
2117.4568,100.189
2118.4209,100.19
2119.3853,100.187
2120.3494,100.18
2121.3137,100.172
2122.2778,100.166
2123.2422,100.161
2124.2063,100.159
2125.1707,100.158
2126.1348,100.157
2127.0991,100.158
2128.0632,100.161
2129.0276,100.166
2129.9917,100.173
2130.9561,100.178
2131.9202,100.179
2132.8845,100.175
2133.8486,100.167
2134.8130,100.158
2135.7771,100.153
2136.7415,100.154
2137.7056,100.161
2138.6699,100.171
2139.6340,100.181
2140.5984,100.187
2141.5625,100.189
2142.5269,100.188
2143.4910,100.187
2144.4553,100.188
2145.4194,100.192
2146.3838,100.198
2147.3479,100.202
2148.3123,100.205
2149.2764,100.204
2150.2407,100.2
2151.2048,100.195
2152.1692,100.19
2153.1333,100.186
2154.0977,100.184
2155.0618,100.183
2156.0261,100.182
2156.9902,100.182
2157.9546,100.181
2158.9187,100.18
2159.8831,100.18
2160.8472,100.181
2161.8115,100.184
2162.7756,100.188
2163.7400,100.192
2164.7041,100.193
2165.6685,100.191
2166.6326,100.186
2167.5969,100.179
2168.5610,100.172
2169.5254,100.166
2170.4895,100.163
2171.4539,100.16
2172.4180,100.158
2173.3823,100.155
2174.3464,100.153
2175.3108,100.151
2176.2749,100.151
2177.2393,100.153
2178.2034,100.156
2179.1677,100.156
2180.1318,100.153
2181.0962,100.146
2182.0603,100.135
2183.0247,100.123
2183.9888,100.113
2184.9531,100.106
2185.9172,100.104
2186.8816,100.105
2187.8457,100.109
2188.8101,100.113
2189.7742,100.116
2190.7385,100.117
2191.7026,100.117
2192.6670,100.116
2193.6311,100.114
2194.5955,100.111
2195.5596,100.107
2196.5239,100.102
2197.4880,100.095
2198.4524,100.086
2199.4165,100.076
2200.3809,100.066
2201.3450,100.058
2202.3093,100.052
2203.2734,100.049
2204.2378,100.048
2205.2019,100.048
2206.1663,100.048
2207.1304,100.046
2208.0947,100.042
2209.0588,100.036
2210.0232,100.029
2210.9873,100.02
2211.9517,100.01
2212.9158,100
2213.8801,99.9913
2214.8442,99.9839
2215.8086,99.979
2216.7727,99.9758
2217.7371,99.9729
2218.7012,99.969
2219.6655,99.9635
2220.6296,99.9572
2221.5940,99.9514
2222.5581,99.9473
2223.5225,99.9453
2224.4866,99.944
2225.4509,99.9417
2226.4150,99.9368
2227.3794,99.9289
2228.3435,99.9184
2229.3079,99.9061
2230.2720,99.8931
2231.2363,99.8802
2232.2004,99.8678
2233.1648,99.8564
2234.1289,99.8465
2235.0933,99.8388
2236.0574,99.8332
2237.0217,99.8292
2237.9858,99.8253
2238.9502,99.8201
2239.9143,99.812
2240.8787,99.8007
2241.8428,99.7866
2242.8071,99.7706
2243.7712,99.7539
2244.7356,99.7375
2245.6997,99.722
2246.6641,99.7077
2247.6282,99.6945
2248.5925,99.6818
2249.5566,99.6686
2250.5210,99.6537
2251.4851,99.6364
2252.4495,99.6167
2253.4136,99.5952
2254.3779,99.5731
2255.3420,99.5511
2256.3064,99.5299
2257.2705,99.5096
2258.2349,99.4901
2259.1990,99.4716
2260.1633,99.4542
2261.1274,99.4381
2262.0918,99.4231
2263.0559,99.4091
2264.0203,99.3962
2264.9844,99.3844
2265.9487,99.3737
2266.9128,99.3637
2267.8772,99.3533
2268.8413,99.3419
2269.8057,99.3293
2270.7698,99.3166
2271.7341,99.3053
2272.6982,99.2974
2273.6626,99.2936
2274.6267,99.2942
2275.5911,99.2988
2276.5552,99.3073
2277.5195,99.3197
2278.4836,99.3356
2279.4480,99.3535
2280.4121,99.3704
2281.3765,99.3819
2282.3406,99.3835
2283.3049,99.3715
2284.2690,99.3442
2285.2334,99.3023
2286.1975,99.2492
2287.1619,99.1897
2288.1260,99.1286
2289.0903,99.0689
2290.0544,99.0118
2291.0188,98.957
2291.9829,98.9054
2292.9473,98.859
2293.9114,98.8212
2294.8757,98.7943
2295.8398,98.779
2296.8042,98.7742
2297.7683,98.7798
2298.7327,98.7979
2299.6968,98.8332
2300.6611,98.8892
2301.6252,98.9639
2302.5896,99.0471
2303.5537,99.1218
2304.5181,99.1709
2305.4822,99.1863
2306.4465,99.175
2307.4106,99.1595
2308.3750,99.1692
2309.3391,99.2268
2310.3035,99.3365
2311.2676,99.4805
2312.2319,99.6285
2313.1960,99.7535
2314.1604,99.8453
2315.1245,99.9143
2316.0889,99.9831
2317.0530,100.073
2318.0173,100.19
2318.9814,100.319
2319.9458,100.42
2320.9099,100.443
2321.8743,100.34
2322.8384,100.098
2323.8027,99.7556
2324.7668,99.3919
2325.7312,99.1001
2326.6953,98.9497
2327.6597,98.9567
2328.6238,99.0748
2329.5881,99.2111
2330.5522,99.2666
2331.5166,99.1852
2332.4807,98.9798
2333.4451,98.7169
2334.4092,98.4739
2335.3735,98.2989
2336.3376,98.1935
2337.3020,98.1322
2338.2661,98.0605
2339.2305,97.9435
2340.1946,97.7969
2341.1589,97.7014
2342.1230,97.7897
2343.0874,98.1461
2344.0515,98.6443
2345.0159,98.9726
2345.9800,98.9322
2346.9443,98.6168
2347.9084,98.2807
2348.8728,98.1361
2349.8369,98.2498
2350.8013,98.5323
2351.7654,98.7907
2352.7297,98.843
2353.6938,98.6491
2354.6582,98.3221
2355.6223,97.9815
2356.5867,97.647
2357.5508,97.3065
2358.5151,97.009
2359.4792,96.8422
2360.4436,96.8381
2361.4077,96.9513
2362.3721,97.1293
2363.3362,97.3708
2364.3005,97.7058
2365.2646,98.1439
2366.2290,98.6528
2367.1931,99.1793
2368.1575,99.6781
2369.1216,100.122
2370.0859,100.496
2371.0500,100.794
2372.0144,101.011
2372.9785,101.146
2373.9429,101.192
2374.9070,101.146
2375.8713,101.012
2376.8354,100.802
2377.7998,100.542
2378.7639,100.262
2379.7283,99.9952
2380.6924,99.7663
2381.6567,99.5913
2382.6208,99.475
2383.5852,99.4127
2384.5493,99.3934
2385.5137,99.4026
2386.4778,99.4263
2387.4421,99.453
2388.4063,99.4754
2389.3706,99.4906
2390.3347,99.4991
2391.2991,99.5038
2392.2632,99.5078
2393.2275,99.5132
2394.1917,99.5208
2395.1560,99.5297
2396.1201,99.5389
2397.0845,99.5477
2398.0486,99.5553
2399.0129,99.5614
2399.9771,99.5654
2400.9414,99.5663
2401.9055,99.5636
2402.8699,99.5579
2403.8340,99.5513
2404.7983,99.5466
2405.7625,99.5457
2406.7268,99.5491
2407.6909,99.5551
2408.6553,99.5615
2409.6194,99.5668
2410.5837,99.5704
2411.5479,99.5732
2412.5122,99.576
2413.4763,99.5794
2414.4407,99.5835
2415.4048,99.5881
2416.3691,99.5936
2417.3333,99.6002
2418.2976,99.6081
2419.2617,99.6165
2420.2261,99.6234
2421.1902,99.6275
2422.1545,99.628
2423.1187,99.6263
2424.0830,99.625
2425.0471,99.6269
2426.0115,99.6335
2426.9756,99.6444
2427.9399,99.6575
2428.9041,99.6699
2429.8684,99.6794
2430.8325,99.6846
2431.7969,99.6857
2432.7610,99.6838
2433.7253,99.6801
2434.6895,99.6763
2435.6538,99.6736
2436.6179,99.6732
2437.5823,99.6756
2438.5464,99.6811
2439.5107,99.6894
2440.4749,99.6999
2441.4392,99.7118
2442.4033,99.7237
2443.3677,99.7339
2444.3318,99.7403
2445.2961,99.7416
2446.2603,99.7376
2447.2246,99.73
2448.1887,99.7214
2449.1531,99.7145
2450.1172,99.7115
2451.0815,99.7131
2452.0457,99.7188
2453.0100,99.7274
2453.9741,99.7369
2454.9385,99.7455
2455.9026,99.751
2456.8669,99.7521
2457.8311,99.7488
2458.7954,99.7426
2459.7595,99.736
2460.7239,99.7317
2461.6880,99.7314
2462.6523,99.7356
2463.6165,99.7433
2464.5808,99.7528
2465.5449,99.7618
2466.5093,99.7685
2467.4734,99.7718
2468.4377,99.7716
2469.4019,99.7689
2470.3662,99.7657
2471.3303,99.7642
2472.2947,99.7662
2473.2588,99.7721
2474.2231,99.781
2475.1873,99.7907
2476.1516,99.7987
2477.1157,99.8037
2478.0801,99.8052
2479.0442,99.8046
2480.0085,99.8036
2480.9727,99.8039
2481.9370,99.8057
2482.9011,99.8084
2483.8655,99.8106
2484.8296,99.8114
2485.7939,99.8111
2486.7581,99.8109
2487.7224,99.8126
2488.6865,99.8167
2489.6509,99.8225
2490.6150,99.8284
2491.5793,99.8324
2492.5435,99.8342
2493.5078,99.8349
2494.4719,99.8365
2495.4363,99.8407
2496.4004,99.8475
2497.3647,99.8548
2498.3289,99.8599
2499.2932,99.8608
2500.2573,99.8572
2501.2217,99.8512
2502.1858,99.8455
2503.1501,99.8425
2504.1143,99.8427
2505.0786,99.845
2506.0427,99.8475
2507.0071,99.8482
2507.9712,99.8462
2508.9355,99.8414
2509.8997,99.8345
2510.8640,99.8264
2511.8281,99.8184
2512.7925,99.8124
2513.7566,99.81
2514.7209,99.8128
2515.6851,99.8203
2516.6494,99.8303
2517.6135,99.839
2518.5779,99.8423
2519.5420,99.8385
2520.5063,99.8286
2521.4705,99.8162
2522.4348,99.8058
2523.3989,99.8008
2524.3633,99.8021
2525.3274,99.8079
2526.2917,99.815
2527.2559,99.8205
2528.2202,99.8226
2529.1843,99.821
2530.1487,99.8163
2531.1128,99.8094
2532.0771,99.8012
2533.0413,99.7924
2534.0056,99.7839
2534.9697,99.7768
2535.9341,99.7722
2536.8982,99.7708
2537.8625,99.773
2538.8267,99.7781
2539.7910,99.785
2540.7551,99.7921
2541.7195,99.798
2542.6836,99.8017
2543.6479,99.8033
2544.6121,99.8031
2545.5764,99.8021
2546.5405,99.8009
2547.5049,99.7995
2548.4690,99.7977
2549.4333,99.7953
2550.3975,99.7926
2551.3618,99.7908
2552.3259,99.7911
2553.2903,99.7944
2554.2544,99.8002
2555.2188,99.807
2556.1829,99.8128
2557.1472,99.8166
2558.1113,99.8185
2559.0757,99.8195
2560.0398,99.8206
2561.0042,99.8216
2561.9683,99.8213
2562.9326,99.8187
2563.8967,99.8141
2564.8611,99.809
2565.8252,99.8058
2566.7896,99.8063
2567.7537,99.8102
2568.7180,99.8158
2569.6821,99.8205
2570.6465,99.8229
2571.6106,99.8228
2572.5750,99.8218
2573.5391,99.8216
2574.5034,99.8235
2575.4675,99.828
2576.4319,99.8343
2577.3960,99.8411
2578.3604,99.8475
2579.3245,99.8531
2580.2888,99.8583
2581.2529,99.864
2582.2173,99.8707
2583.1814,99.8778
2584.1458,99.8837
2585.1099,99.8864
2586.0742,99.8847
2587.0383,99.8792
2588.0027,99.8721
2588.9668,99.8662
2589.9312,99.8637
2590.8953,99.8652
2591.8596,99.8694
2592.8237,99.8745
2593.7881,99.8783
2594.7522,99.8798
2595.7166,99.8792
2596.6807,99.8777
2597.6450,99.877
2598.6091,99.8785
2599.5735,99.8822
2600.5376,99.8872
2601.5020,99.8915
2602.4661,99.8934
2603.4304,99.8924
2604.3945,99.8895
2605.3589,99.887
2606.3230,99.8868
2607.2874,99.8902
2608.2515,99.8966
2609.2158,99.9044
2610.1799,99.9118
2611.1443,99.918
2612.1084,99.9228
2613.0728,99.9266
2614.0369,99.9291
2615.0012,99.9301
2615.9653,99.9288
2616.9297,99.9257
2617.8938,99.9222
2618.8582,99.9203
2619.8223,99.9217
2620.7866,99.9266
2621.7507,99.9336
2622.7151,99.9405
2623.6792,99.9453
2624.6436,99.9474
2625.6077,99.9477
2626.5720,99.9478
2627.5361,99.9491
2628.5005,99.9521
2629.4646,99.9563
2630.4290,99.9609
2631.3931,99.9649
2632.3574,99.9679
2633.3215,99.97
2634.2859,99.9716
2635.2500,99.9736
2636.2144,99.9766
2637.1785,99.9814
2638.1428,99.9882
2639.1069,99.9966
2640.0713,100.005
2641.0354,100.013
2641.9998,100.019
2642.9639,100.022
2643.9282,100.023
2644.8923,100.024
2645.8567,100.024
2646.8208,100.025
2647.7852,100.025
2648.7493,100.024
2649.7136,100.022
2650.6777,100.021
2651.6421,100.021
2652.6062,100.025
2653.5706,100.033
2654.5347,100.044
2655.4990,100.056
2656.4631,100.066
2657.4275,100.073
2658.3916,100.076
2659.3560,100.076
2660.3201,100.075
2661.2844,100.075
2662.2485,100.076
2663.2129,100.08
2664.1770,100.085
2665.1414,100.091
2666.1055,100.098
2667.0698,100.105
2668.0339,100.113
2668.9983,100.122
2669.9624,100.13
2670.9268,100.138
2671.8909,100.144
2672.8552,100.149
2673.8193,100.153
2674.7837,100.156
2675.7478,100.16
2676.7122,100.164
2677.6763,100.168
2678.6406,100.172
2679.6047,100.174
2680.5691,100.175
2681.5332,100.175
2682.4976,100.175
2683.4617,100.173
2684.4260,100.169
2685.3901,100.165
2686.3545,100.162
2687.3186,100.16
2688.2830,100.16
2689.2471,100.163
2690.2114,100.168
2691.1755,100.175
2692.1399,100.183
2693.1040,100.19
2694.0684,100.195
2695.0325,100.197
2695.9968,100.197
2696.9609,100.196
2697.9253,100.196
2698.8894,100.197
2699.8538,100.2
2700.8179,100.203
2701.7822,100.205
2702.7463,100.205
2703.7107,100.203
2704.6748,100.199
2705.6392,100.193
2706.6033,100.186
2707.5676,100.18
2708.5317,100.174
2709.4961,100.17
2710.4602,100.168
2711.4246,100.167
2712.3887,100.168
2713.3530,100.168
2714.3171,100.168
2715.2815,100.165
2716.2456,100.16
2717.2100,100.153
2718.1741,100.144
2719.1384,100.133
2720.1025,100.122
2721.0669,100.112
2722.0310,100.104
2722.9954,100.098
2723.9595,100.092
2724.9238,100.084
2725.8879,100.073
2726.8523,100.06
2727.8164,100.047
2728.7808,100.036
2729.7449,100.028
2730.7092,100.025
2731.6733,100.025
2732.6377,100.029
2733.6018,100.035
2734.5662,100.044
2735.5303,100.055
2736.4946,100.066
2737.4587,100.078
2738.4231,100.09
2739.3872,100.104
2740.3516,100.121
2741.3157,100.143
2742.2800,100.167
2743.2441,100.194
2744.2085,100.221
2745.1726,100.246
2746.1370,100.269
2747.1011,100.287
2748.0654,100.298
2749.0295,100.303
2749.9939,100.303
2750.9580,100.301
2751.9224,100.303
2752.8865,100.31
2753.8508,100.321
2754.8149,100.334
2755.7793,100.343
2756.7434,100.346
2757.7078,100.34
2758.6719,100.328
2759.6362,100.314
2760.6003,100.303
2761.5647,100.296
2762.5288,100.293
2763.4932,100.292
2764.4573,100.291
2765.4216,100.289
2766.3857,100.286
2767.3501,100.284
2768.3142,100.284
2769.2786,100.285
2770.2427,100.284
2771.2070,100.277
2772.1711,100.26
2773.1355,100.233
2774.0996,100.199
2775.0640,100.165
2776.0281,100.136
2776.9924,100.114
2777.9565,100.095
2778.9209,100.075
2779.8850,100.047
2780.8494,100.011
2781.8135,99.9697
2782.7778,99.9289
2783.7419,99.894
2784.7063,99.8673
2785.6704,99.8474
2786.6348,99.8307
2787.5989,99.8135
2788.5632,99.7937
2789.5273,99.7719
2790.4917,99.7501
2791.4558,99.7308
2792.4202,99.716
2793.3843,99.7059
2794.3486,99.6995
2795.3127,99.6945
2796.2771,99.6882
2797.2412,99.6782
2798.2056,99.6626
2799.1697,99.6411
2800.1340,99.6151
2801.0981,99.587
2802.0625,99.5597
2803.0266,99.5354
2803.9910,99.5144
2804.9551,99.4949
2805.9194,99.4731
2806.8835,99.4449
2807.8479,99.407
2808.8120,99.3588
2809.7764,99.3019
2810.7405,99.2398
2811.7048,99.1761
2812.6689,99.1133
2813.6333,99.0518
2814.5974,98.9906
2815.5618,98.9275
2816.5259,98.8604
2817.4902,98.7876
2818.4543,98.7076
2819.4187,98.6197
2820.3828,98.5233
2821.3472,98.4186
2822.3113,98.3056
2823.2756,98.185
2824.2397,98.0567
2825.2041,97.9207
2826.1682,97.7764
2827.1326,97.6228
2828.0967,97.4591
2829.0610,97.2846
2830.0251,97.0991
2830.9895,96.9021
2831.9536,96.6934
2832.9180,96.4714
2833.8821,96.2339
2834.8464,95.9775
2835.8105,95.6991
2836.7749,95.3962
2837.7390,95.0682
2838.7034,94.7162
2839.6675,94.3414
2840.6318,93.9437
2841.5959,93.5196
2842.5603,93.064
2843.5244,92.5742
2844.4888,92.0546
2845.4529,91.5219
2846.4172,91.0036
2847.3813,90.5317
2848.3457,90.1323
2849.3098,89.8171
2850.2742,89.5805
2851.2383,89.4045
2852.2026,89.2684
2853.1667,89.1567
2854.1311,89.0622
2855.0952,88.9836
2856.0596,88.9199
2857.0237,88.8666
2857.9880,88.8157
2858.9521,88.7582
2859.9165,88.6878
2860.8806,88.6019
2861.8450,88.5016
2862.8091,88.3893
2863.7734,88.2677
2864.7375,88.14
2865.7019,88.0102
2866.6660,87.8837
2867.6304,87.767
2868.5945,87.6668
2869.5588,87.5888
2870.5229,87.5367
2871.4873,87.5111
2872.4514,87.5096
2873.4158,87.5272
2874.3799,87.5563
2875.3442,87.5886
2876.3083,87.6156
2877.2727,87.6298
2878.2368,87.626
2879.2012,87.6021
2880.1653,87.5603
2881.1296,87.5061
2882.0938,87.4468
2883.0581,87.3891
2884.0222,87.3364
2884.9866,87.2879
2885.9507,87.2378
2886.9150,87.1777
2887.8792,87.0992
2888.8435,86.9971
2889.8076,86.8727
2890.7720,86.7334
2891.7361,86.5898
2892.7004,86.4489
2893.6646,86.3087
2894.6289,86.1559
2895.5930,85.9723
2896.5574,85.7453
2897.5215,85.4774
2898.4858,85.1889
2899.4500,84.9098
2900.4143,84.666
2901.3784,84.4671
2902.3428,84.3028
2903.3069,84.1494
2904.2712,83.9811
2905.2354,83.7801
2906.1997,83.5393
2907.1638,83.259
2908.1282,82.9422
2909.0923,82.5919
2910.0566,82.2124
2911.0208,81.8117
2911.9851,81.4034
2912.9492,81.0046
2913.9136,80.6326
2914.8777,80.3005
2915.8420,80.0156
2916.8062,79.7792
2917.7705,79.589
2918.7346,79.4414
2919.6990,79.334
2920.6631,79.2658
2921.6274,79.238
2922.5916,79.2526
2923.5559,79.3112
2924.5200,79.4146
2925.4844,79.5617
2926.4485,79.75
2927.4128,79.9745
2928.3770,80.2288
2929.3413,80.5049
2930.3054,80.7951
2931.2698,81.0935
2932.2339,81.3974
2933.1982,81.7066
2934.1624,82.0224
2935.1267,82.3453
2936.0908,82.6727
2937.0552,82.999
2938.0193,83.3158
2938.9836,83.6149
2939.9478,83.8901
2940.9121,84.1393
2941.8762,84.3641
2942.8406,84.5672
2943.8047,84.7498
2944.7690,84.9088
2945.7332,85.0372
2946.6975,85.1269
2947.6616,85.1727
2948.6260,85.1754
2949.5901,85.1421
2950.5544,85.0835
2951.5186,85.0101
2952.4829,84.9292
2953.4470,84.845
2954.4114,84.76
2955.3755,84.6772
2956.3398,84.6021
2957.3040,84.5415
2958.2683,84.5017
2959.2324,84.4857
2960.1968,84.4927
2961.1609,84.5189
2962.1252,84.5599
2963.0894,84.6136
2964.0537,84.681
2965.0178,84.7652
2965.9822,84.8689
2966.9463,84.9929
2967.9106,85.1367
2968.8748,85.3
2969.8391,85.4843
2970.8032,85.6931
2971.7676,85.9291
2972.7317,86.192
2973.6960,86.4774
2974.6602,86.7776
2975.6245,87.085
2976.5886,87.3949
2977.5530,87.7061
2978.5171,88.0206
2979.4814,88.3403
2980.4456,88.6641
2981.4099,88.9863
2982.3740,89.296
2983.3384,89.5818
2984.3025,89.8383
2985.2668,90.0732
2986.2310,90.3089
2987.1953,90.5761
2988.1594,90.9008
2989.1238,91.29
2990.0879,91.726
2991.0522,92.1728
2992.0164,92.5913
2992.9807,92.9553
2993.9448,93.2605
2994.9092,93.5212
2995.8733,93.7596
2996.8376,93.9943
2997.8018,94.2339
2998.7661,94.4774
2999.7302,94.7196
3000.6946,94.956
3001.6587,95.186
3002.6230,95.4131
3003.5872,95.6422
3004.5515,95.8764
3005.5156,96.1146
3006.4800,96.3504
3007.4441,96.5746
3008.4084,96.7794
3009.3726,96.9624
3010.3369,97.129
3011.3010,97.2886
3012.2654,97.4497
3013.2295,97.6147
3014.1938,97.7786
3015.1580,97.9329
3016.1223,98.0704
3017.0864,98.1896
3018.0508,98.2942
3019.0149,98.3902
3019.9792,98.4819
3020.9434,98.571
3021.9077,98.6572
3022.8718,98.7396
3023.8362,98.8182
3024.8003,98.893
3025.7646,98.9629
3026.7288,99.0255
3027.6931,99.0787
3028.6572,99.1229
3029.6216,99.162
3030.5857,99.2023
3031.5500,99.25
3032.5142,99.3081
3033.4785,99.3755
3034.4426,99.4482
3035.4070,99.521
3036.3711,99.5897
3037.3354,99.6511
3038.2996,99.703
3039.2639,99.7445
3040.2280,99.7756
3041.1924,99.7973
3042.1565,99.8117
3043.1208,99.8209
3044.0850,99.8272
3045.0493,99.8328
3046.0134,99.8403
3046.9778,99.8246
3047.9419,99.8074
3048.9063,99.7918
3049.8704,99.7732
3050.8347,99.7471
3051.7988,99.7117
3052.7632,99.6699
3053.7273,99.6281
3054.6917,99.5939
3055.6558,99.5724
3056.6201,99.5638
3057.5842,99.5634
3058.5486,99.5634
3059.5127,99.556
3060.4771,99.536
3061.4412,99.5029
3062.4055,99.4606
3063.3696,99.4165
3064.3340,99.3783
3065.2981,99.3507
3066.2625,99.3332
3067.2266,99.3212
3068.1909,99.3087
3069.1550,99.292
3070.1194,99.2709
3071.0835,99.2478
3072.0479,99.2245
3073.0120,99.2005
3073.9763,99.1728
3074.9404,99.138
3075.9048,99.0955
3076.8689,99.0483
3077.8333,99.0024
3078.7974,98.9636
3079.7617,98.9351
3080.7258,98.9163
3081.6902,98.9031
3082.6543,98.8902
3083.6187,98.8725
3084.5828,98.847
3085.5471,98.8129
3086.5112,98.7722
3087.4756,98.7283
3088.4397,98.6846
3089.4041,98.6426
3090.3682,98.6006
3091.3325,98.5547
3092.2966,98.5011
3093.2610,98.4381
3094.2251,98.3675
3095.1895,98.2934
3096.1536,98.2203
3097.1179,98.1515
3098.0820,98.0887
3099.0464,98.0323
3100.0105,97.9819
3100.9749,97.9362
3101.9390,97.8929
3102.9033,97.8492
3103.8674,97.8027
3104.8318,97.7529
3105.7959,97.701
3106.7603,97.6492
3107.7244,97.5988
3108.6887,97.549
3109.6528,97.4972
3110.6172,97.4398
3111.5813,97.3745
3112.5457,97.3013
3113.5098,97.2229
3114.4741,97.1439
3115.4382,97.0695
3116.4026,97.0036
3117.3667,96.9478
3118.3311,96.9004
3119.2952,96.8575
3120.2595,96.8141
3121.2236,96.7665
3122.1880,96.7136
3123.1521,96.6578
3124.1165,96.603
3125.0806,96.5521
3126.0449,96.5051
3127.0090,96.4584
3127.9734,96.4065
3128.9375,96.3452
3129.9019,96.2746
3130.8660,96.1995
3131.8303,96.1275
3132.7944,96.0652
3133.7588,96.0153
3134.7229,95.9751
3135.6873,95.9387
3136.6514,95.8996
3137.6157,95.8535
3138.5798,95.7992
3139.5442,95.7381
3140.5083,95.6728
3141.4727,95.6055
3142.4368,95.5377
3143.4011,95.4694
3144.3652,95.4007
3145.3296,95.3318
3146.2937,95.2634
3147.2581,95.1974
3148.2222,95.1352
3149.1865,95.0767
3150.1506,95.0202
3151.1150,94.9625
3152.0791,94.9011
3153.0435,94.8354
3154.0076,94.7673
3154.9719,94.6993
3155.9360,94.6328
3156.9004,94.5672
3157.8645,94.5001
3158.8289,94.4296
3159.7930,94.3556
3160.7573,94.2807
3161.7214,94.2086
3162.6858,94.1421
3163.6499,94.0816
3164.6143,94.0252
3165.5784,93.9697
3166.5427,93.9129
3167.5068,93.8544
3168.4712,93.7953
3169.4353,93.7847
3170.3997,93.7237
3171.3638,93.6573
3172.3281,93.5821
3173.2922,93.4974
3174.2566,93.4067
3175.2207,93.3173
3176.1851,93.237
3177.1492,93.1704
3178.1135,93.1164
3179.0776,93.0686
3180.0420,93.019
3181.0061,92.9622
3181.9705,92.8979
3182.9346,92.8308
3183.8989,92.7669
3184.8630,92.7103
3185.8274,92.6608
3186.7915,92.6143
3187.7559,92.5654
3188.7200,92.5104
3189.6843,92.4487
3190.6484,92.3823
3191.6128,92.3138
3192.5769,92.2453
3193.5413,92.177
3194.5054,92.1084
3195.4697,92.0397
3196.4338,91.9721
3197.3982,91.9079
3198.3623,91.8495
3199.3267,91.7981
3200.2908,91.7532
3201.2551,91.7123
3202.2192,91.6713
3203.1836,91.6259
3204.1477,91.5727
3205.1121,91.5117
3206.0762,91.4465
3207.0405,91.3834
3208.0046,91.3274
3208.9690,91.2798
3209.9331,91.2367
3210.8975,91.1916
3211.8616,91.1396
3212.8259,91.0807
3213.7900,91.0195
3214.7544,90.962
3215.7185,90.9119
3216.6829,90.8684
3217.6470,90.8278
3218.6113,90.7862
3219.5754,90.7424
3220.5398,90.6979
3221.5039,90.655
3222.4683,90.6152
3223.4324,90.5779
3224.3967,90.5412
3225.3608,90.5034
3226.3252,90.4637
3227.2893,90.4223
3228.2537,90.3798
3229.2178,90.3368
3230.1821,90.2939
3231.1462,90.2509
3232.1106,90.2081
3233.0747,90.1657
3234.0391,90.124
3235.0032,90.0833
3235.9675,90.0432
3236.9316,90.0029
3237.8960,89.9608
3238.8601,89.9162
3239.8245,89.8691
3240.7886,89.8214
3241.7529,89.7758
3242.7170,89.7351
3243.6814,89.7004
3244.6455,89.6702
3245.6099,89.6414
3246.5740,89.6098
3247.5383,89.5726
3248.5024,89.5297
3249.4668,89.4833
3250.4309,89.4363
3251.3953,89.3912
3252.3594,89.3484
3253.3237,89.3071
3254.2878,89.2667
3255.2522,89.2285
3256.2163,89.1954
3257.1807,89.1703
3258.1448,89.1526
3259.1091,89.137
3260.0732,89.1155
3261.0376,89.0816
3262.0017,89.0344
3262.9661,88.9799
3263.9302,88.9275
3264.8945,88.885
3265.8586,88.8537
3266.8230,88.8286
3267.7871,88.8012
3268.7515,88.7646
3269.7156,88.7171
3270.6799,88.6619
3271.6440,88.6055
3272.6084,88.5546
3273.5725,88.5136
3274.5369,88.4839
3275.5010,88.4639
3276.4653,88.4497
3277.4294,88.4367
3278.3938,88.4214
3279.3579,88.4018
3280.3223,88.3784
3281.2864,88.3525
3282.2507,88.3252
3283.2148,88.2967
3284.1792,88.2658
3285.1433,88.2314
3286.1077,88.1934
3287.0718,88.1533
3288.0361,88.1133
3289.0002,88.0756
3289.9646,88.0425
3290.9287,88.0155
3291.8931,87.995
3292.8572,87.9803
3293.8215,87.9681
3294.7856,87.9539
3295.7500,87.9327
3296.7141,87.9018
3297.6785,87.8619
3298.6426,87.8176
3299.6069,87.7744
3300.5710,87.7368
3301.5354,87.7059
3302.4995,87.6798
3303.4639,87.6549
3304.4280,87.6286
3305.3923,87.6005
3306.3564,87.5719
3307.3208,87.5448
3308.2849,87.5208
3309.2493,87.5004
3310.2134,87.4831
3311.1777,87.4683
3312.1418,87.4548
3313.1062,87.4416
3314.0703,87.4276
3315.0347,87.412
3315.9988,87.394
3316.9631,87.3732
3317.9272,87.3491
3318.8916,87.3213
3319.8557,87.2904
3320.8201,87.2576
3321.7842,87.2252
3322.7485,87.1956
3323.7126,87.1703
3324.6770,87.1492
3325.6411,87.1313
3326.6055,87.1151
3327.5696,87.0994
3328.5339,87.0827
3329.4980,87.0634
3330.4624,87.0402
3331.4265,87.0129
3332.3909,86.9838
3333.3550,86.9574
3334.3193,86.938
3335.2834,86.9274
3336.2478,86.9233
3337.2119,86.9206
3338.1763,86.9143
3339.1404,86.9027
3340.1047,86.887
3341.0688,86.8701
3342.0332,86.8537
3342.9973,86.8379
3343.9617,86.8222
3344.9258,86.8068
3345.8901,86.7939
3346.8542,86.7851
3347.8186,86.7801
3348.7827,86.7753
3349.7471,86.766
3350.7112,86.7484
3351.6755,86.7223
3352.6396,86.6912
3353.6040,86.6604
3354.5681,86.6349
3355.5325,86.6174
3356.4966,86.6081
3357.4609,86.6046
3358.4250,86.6033
3359.3894,86.6
3360.3535,86.5916
3361.3179,86.5777
3362.2820,86.5617
3363.2463,86.5494
3364.2104,86.5468
3365.1748,86.5565
3366.1389,86.5759
3367.1033,86.598
3368.0674,86.615
3369.0317,86.622
3369.9958,86.6189
3370.9602,86.609
3371.9243,86.5967
3372.8887,86.5848
3373.8528,86.5745
3374.8171,86.5662
3375.7813,86.5611
3376.7456,86.5613
3377.7097,86.5677
3378.6741,86.5787
3379.6382,86.5894
3380.6025,86.5943
3381.5667,86.5901
3382.5310,86.5784
3383.4951,86.5651
3384.4595,86.5575
3385.4236,86.5601
3386.3879,86.5723
3387.3521,86.5905
3388.3164,86.6104
3389.2805,86.6296
3390.2449,86.6476
3391.2090,86.6648
3392.1733,86.6817
3393.1375,86.699
3394.1018,86.7186
3395.0659,86.7433
3396.0303,86.7746
3396.9944,86.8096
3397.9587,86.841
3398.9229,86.8603
3399.8872,86.8642
3400.8513,86.8576
3401.8157,86.8521
3402.7798,86.8598
3403.7441,86.8865
3404.7083,86.9289
3405.6726,86.9773
3406.6367,87.0221
3407.6011,87.0581
3408.5652,87.086
3409.5295,87.1089
3410.4937,87.1295
3411.4580,87.1478
3412.4221,87.1625
3413.3865,87.1728
3414.3506,87.1797
3415.3149,87.1857
3416.2791,87.1936
3417.2434,87.2065
3418.2075,87.2285
3419.1719,87.2642
3420.1360,87.3167
3421.1003,87.3842
3422.0645,87.4583
3423.0288,87.5267
3423.9929,87.5788
3424.9573,87.6111
3425.9214,87.6287
3426.8857,87.6436
3427.8499,87.669
3428.8142,87.7121
3429.7783,87.7713
3430.7427,87.8376
3431.7068,87.9012
3432.6711,87.957
3433.6353,88.007
3434.5996,88.0564
3435.5637,88.1085
3436.5281,88.1612
3437.4922,88.2077
3438.4565,88.2411
3439.4207,88.2589
3440.3850,88.2651
3441.3491,88.2675
3442.3135,88.2745
3443.2776,88.2915
3444.2419,88.3209
3445.2061,88.3638
3446.1704,88.4217
3447.1345,88.4948
3448.0989,88.5805
3449.0630,88.6731
3450.0273,88.7654
3450.9915,88.8516
3451.9558,88.9277
3452.9199,88.9922
3453.8843,89.0457
3454.8484,89.0899
3455.8127,89.1269
3456.7769,89.1585
3457.7412,89.1864
3458.7053,89.214
3459.6697,89.2455
3460.6338,89.2857
3461.5981,89.3369
3462.5623,89.3986
3463.5266,89.4674
3464.4907,89.54
3465.4551,89.6139
3466.4192,89.6876
3467.3835,89.7587
3468.3477,89.8229
3469.3120,89.8759
3470.2761,89.9173
3471.2405,89.9528
3472.2046,89.993
3473.1689,90.0477
3474.1331,90.1193
3475.0974,90.1993
3476.0615,90.2724
3477.0259,90.3254
3477.9900,90.3552
3478.9543,90.371
3479.9185,90.3897
3480.8828,90.4272
3481.8469,90.4888
3482.8113,90.5669
3483.7754,90.6474
3484.7397,90.7196
3485.7039,90.7815
3486.6682,90.8395
3487.6323,90.9026
3488.5967,90.9763
3489.5608,91.0583
3490.5251,91.1404
3491.4893,91.2147
3492.4536,91.2775
3493.4177,91.3318
3494.3821,91.3837
3495.3462,91.4373
3496.3105,91.4894
3497.2747,91.5309
3498.2390,91.5535
3499.2031,91.557
3500.1675,91.5531
3501.1316,91.5637
3502.0959,91.6102
3503.0601,91.699
3504.0244,91.8142
3504.9885,91.9294
3505.9529,92.0261
3506.9170,92.1011
3507.8813,92.1642
3508.8455,92.2299
3509.8098,92.3097
3510.7739,92.4056
3511.7383,92.5104
3512.7024,92.615
3513.6667,92.7127
3514.6309,92.7998
3515.5952,92.8742
3516.5593,92.9339
3517.5237,92.9791
3518.4878,93.012
3519.4521,93.037
3520.4163,93.0591
3521.3806,93.0825
3522.3447,93.1099
3523.3091,93.143
3524.2732,93.1842
3525.2375,93.2382
3526.2017,93.3128
3527.1660,93.4144
3528.1301,93.5424
3529.0945,93.6854
3530.0586,93.826
3531.0229,93.9499
3531.9871,94.0533
3532.9514,94.1422
3533.9155,94.2274
3534.8799,94.3194
3535.8440,94.4225
3536.8083,94.5315
3537.7725,94.6333
3538.7368,94.7135
3539.7009,94.7636
3540.6653,94.7836
3541.6294,94.7813
3542.5938,94.7734
3543.5579,94.7865
3544.5222,94.8489
3545.4863,94.9708
3546.4507,95.1314
3547.4148,95.2934
3548.3792,95.4308
3549.3433,95.5418
3550.3076,95.6421
3551.2717,95.7526
3552.2361,95.8865
3553.2002,96.0413
3554.1646,96.2006
3555.1287,96.3471
3556.0930,96.4721
3557.0571,96.5749
3558.0215,96.6567
3558.9856,96.717
3559.9500,96.7546
3560.9141,96.7701
3561.8784,96.7676
3562.8425,96.7547
3563.8069,96.744
3564.7710,96.7666
3565.7354,96.8806
3566.6995,97.1255
3567.6638,97.4461
3568.6279,97.7254
3569.5923,97.9012
3570.5564,97.9951
3571.5208,98.0572
3572.4849,98.1197
3573.4492,98.1892
3574.4133,98.2592
3575.3777,98.3243
3576.3418,98.3862
3577.3062,98.4497
3578.2703,98.5154
3579.2346,98.5763
3580.1987,98.6223
3581.1631,98.649
3582.1272,98.662
3583.0916,98.6708
3584.0557,98.6806
3585.0200,98.696
3585.9841,98.7351
3586.9485,98.8181
3587.9126,98.9221
3588.8770,98.9843
3589.8411,98.9719
3590.8054,98.9074
3591.7695,98.832
3592.7339,98.7734
3593.6980,98.7411
3594.6624,98.7301
3595.6265,98.7258
3596.5908,98.7162
3597.5549,98.7069
3598.5193,98.7211
3599.4834,98.7827
3600.4478,98.8946
3601.4119,99.0329
3602.3762,99.1652
3603.3403,99.2745
3604.3047,99.363
3605.2688,99.443
3606.2332,99.5292
3607.1973,99.6327
3608.1616,99.7468
3609.1257,99.8407
3610.0901,99.8784
3611.0542,99.8479
3612.0186,99.7692
3612.9829,99.6813
3613.9470,99.6208
3614.9114,99.6068
3615.8755,99.6376
3616.8398,99.6986
3617.8040,99.7732
3618.7683,99.8442
3619.7324,99.8816
3620.6968,99.8502
3621.6609,99.7496
3622.6252,99.6309
3623.5894,99.5616
3624.5537,99.5788
3625.5178,99.6669
3626.4822,99.7764
3627.4463,99.8811
3628.4106,100.001
3629.3748,100.119
3630.3391,100.164
3631.3032,100.126
3632.2676,100.071
3633.2317,100.064
3634.1960,100.123
3635.1602,100.222
3636.1245,100.322
3637.0886,100.397
3638.0530,100.436
3639.0171,100.445
3639.9814,100.428
3640.9456,100.395
3641.9099,100.358
3642.8740,100.337
3643.8384,100.344
3644.8025,100.362
3645.7668,100.331
3646.7310,100.194
3647.6953,100.027
3648.6594,100.063
3649.6238,100.345
3650.5879,100.606
3651.5522,100.688
3652.5164,100.655
3653.4807,100.605
3654.4448,100.584
3655.4092,100.588
3656.3733,100.591
3657.3376,100.573
3658.3018,100.533
3659.2661,100.493
3660.2302,100.476
3661.1946,100.486
3662.1587,100.506
3663.1230,100.521
3664.0872,100.534
3665.0515,100.557
3666.0156,100.587
3666.9800,100.594
3667.9441,100.543
3668.9084,100.45
3669.8726,100.373
3670.8369,100.344
3671.8010,100.349
3672.7654,100.354
3673.7295,100.329
3674.6938,100.286
3675.6580,100.279
3676.6223,100.321
3677.5864,100.361
3678.5508,100.37
3679.5149,100.368
3680.4792,100.369
3681.4434,100.37
3682.4077,100.367
3683.3718,100.37
3684.3362,100.397
3685.3003,100.443
3686.2646,100.457
3687.2288,100.377
3688.1931,100.206
3689.1572,100.05
3690.1216,99.9963
3691.0857,100.016
3692.0500,100.049
3693.0142,100.078
3693.9785,100.107
3694.9426,100.142
3695.9070,100.188
3696.8711,100.246
3697.8354,100.316
3698.7996,100.389
3699.7639,100.451
3700.7280,100.492
3701.6924,100.512
3702.6565,100.51
3703.6208,100.489
3704.5850,100.462
3705.5493,100.444
3706.5134,100.442
3707.4778,100.443
3708.4419,100.437
3709.4063,100.466
3710.3704,100.622
3711.3347,100.919
3712.2988,101.216
3713.2632,101.363
3714.2273,101.346
3715.1917,101.233
3716.1558,101.092
3717.1201,100.953
3718.0842,100.814
3719.0486,100.663
3720.0127,100.498
3720.9771,100.334
3721.9412,100.191
3722.9055,100.088
3723.8696,100.039
3724.8340,100.045
3725.7981,100.088
3726.7625,100.144
3727.7266,100.204
3728.6909,100.267
3729.6550,100.332
3730.6194,100.38
3731.5835,100.373
3732.5479,100.299
3733.5120,100.21
3734.4763,100.213
3735.4404,100.333
3736.4048,100.457
3737.3689,100.494
3738.3333,100.488
3739.2974,100.552
3740.2617,100.766
3741.2258,101.118
3742.1902,101.497
3743.1543,101.74
3744.1187,101.739
3745.0828,101.517
3746.0471,101.189
3747.0112,100.879
3747.9756,100.659
3748.9397,100.55
3749.9041,100.571
3750.8682,100.712
3751.8325,100.853
3752.7966,100.86
3753.7610,100.74
3754.7251,100.589
3755.6895,100.479
3756.6536,100.432
3757.6179,100.44
3758.5820,100.487
3759.5464,100.55
3760.5105,100.599
3761.4749,100.621
3762.4390,100.625
3763.4033,100.619
3764.3674,100.607
3765.3318,100.586
3766.2959,100.558
3767.2603,100.528
3768.2244,100.508
3769.1887,100.508
3770.1528,100.537
3771.1172,100.563
3772.0813,100.568
3773.0457,100.551
3774.0098,100.531
3774.9741,100.521
3775.9382,100.52
3776.9026,100.519
3777.8667,100.512
3778.8311,100.501
3779.7952,100.478
3780.7595,100.434
3781.7236,100.37
3782.6880,100.303
3783.6521,100.26
3784.6165,100.259
3785.5806,100.304
3786.5449,100.378
3787.5090,100.455
3788.4734,100.518
3789.4375,100.561
3790.4019,100.591
3791.3660,100.609
3792.3303,100.605
3793.2944,100.564
3794.2588,100.476
3795.2229,100.359
3796.1873,100.254
3797.1514,100.194
3798.1157,100.182
3799.0798,100.194
3800.0442,100.201
3801.0083,100.199
3801.9727,100.197
3802.9368,100.205
3803.9011,100.239
3804.8652,100.309
3805.8296,100.405
3806.7937,100.484
3807.7581,100.501
3808.7222,100.441
3809.6865,100.348
3810.6506,100.297
3811.6150,100.332
3812.5791,100.429
3813.5435,100.511
3814.5076,100.501
3815.4719,100.387
3816.4360,100.22
3817.4004,100.068
3818.3645,99.9757
3819.3289,99.9631
3820.2930,100.021
3821.2573,100.097
3822.2214,100.118
3823.1858,100.054
3824.1499,99.9452
3825.1143,99.8583
3826.0784,99.8379
3827.0427,99.8887
3828.0068,99.9842
3828.9712,100.085
3829.9353,100.161
3830.8997,100.201
3831.8638,100.213
3832.8281,100.214
3833.7922,100.209
3834.7566,100.183
3835.7207,100.109
3836.6851,99.9788
3837.6492,99.8301
3838.6135,99.7254
3839.5776,99.7032
3840.5420,99.7588
3841.5061,99.8656
3842.4705,99.9878
3843.4346,100.082
3844.3989,100.107
3845.3630,100.055
3846.3274,99.9636
3847.2915,99.9074
3848.2559,99.9616
3849.2200,100.158
3850.1843,100.457
3851.1484,100.753
3852.1128,100.963
3853.0769,101.088
3854.0413,101.085
3855.0054,100.869
3855.9697,100.511
3856.9338,100.175
3857.8982,99.9698
3858.8623,99.9088
3859.8267,99.9338
3860.7908,99.9643
3861.7551,99.9527
3862.7192,99.9165
3863.6836,99.909
3864.6477,99.9572
3865.6121,100.042
3866.5762,100.126
3867.5405,100.169
3868.5046,100.152
3869.4690,100.085
3870.4331,100.008
3871.3975,99.9604
3872.3616,99.9481
3873.3259,99.9572
3874.2900,99.978
3875.2544,100.012
3876.2185,100.06
3877.1829,100.108
3878.1470,100.131
3879.1113,100.11
3880.0754,100.057
3881.0398,100.007
3882.0039,99.9976
3882.9683,100.043
3883.9324,100.13
3884.8967,100.219
3885.8608,100.269
3886.8252,100.261
3887.7893,100.203
3888.7537,100.121
3889.7178,100.032
3890.6821,99.9504
3891.6462,99.893
3892.6106,99.8644
3893.5747,99.8584
3894.5391,99.8764
3895.5032,99.9255
3896.4675,99.9947
3897.4316,100.051
3898.3960,100.061
3899.3601,100.025
3900.3245,99.9671
3901.2886,99.9168
3902.2529,99.8901
3903.2170,99.8906
3904.1814,99.9083
3905.1455,99.9258
3906.1099,99.9347
3907.0740,99.9417
3908.0383,99.9561
3909.0024,99.9764
3909.9668,99.991
3910.9309,99.9897
3911.8953,99.9734
3912.8594,99.9529
3913.8237,99.9398
3914.7878,99.9381
3915.7522,99.9437
3916.7163,99.9482
3917.6807,99.9399
3918.6448,99.9073
3919.6091,99.8485
3920.5732,99.7767
3921.5376,99.7125
3922.5017,99.6728
3923.4661,99.6632
3924.4302,99.6753
3925.3945,99.6896
3926.3586,99.6891
3927.3230,99.6706
3928.2871,99.6437
3929.2515,99.623
3930.2156,99.6242
3931.1799,99.657
3932.1440,99.7156
3933.1084,99.7776
3934.0725,99.8214
3935.0369,99.8413
3936.0010,99.8459
3936.9653,99.8452
3937.9294,99.8416
3938.8938,99.83
3939.8579,99.8043
3940.8223,99.7656
3941.7864,99.7249
3942.7507,99.6958
3943.7148,99.684
3944.6792,99.6846
3945.6433,99.6871
3946.6077,99.6816
3947.5718,99.6644
3948.5361,99.6409
3949.5002,99.6224
3950.4646,99.6169
3951.4287,99.6251
3952.3931,99.6413
3953.3572,99.6582
3954.3215,99.6689
3955.2856,99.6695
3956.2500,99.6608
3957.2141,99.6473
3958.1785,99.6349
3959.1426,99.6283
3960.1069,99.6308
3961.0710,99.6434
3962.0354,99.6644
3962.9995,99.6891
3963.9639,99.7114
3964.9280,99.7248
3965.8923,99.7253
3966.8564,99.712
3967.8208,99.6872
3968.7849,99.6564
3969.7493,99.6261
3970.7134,99.6025
3971.6777,99.5899
3972.6418,99.5903
3973.6062,99.6029
3974.5703,99.6245
3975.5347,99.6498
3976.4988,99.673
3977.4631,99.6894
3978.4272,99.6968
3979.3916,99.6951
3980.3557,99.6856
3981.3201,99.6704
3982.2842,99.6516
3983.2485,99.6321
3984.2126,99.6146
3985.1770,99.6018
3986.1411,99.5946
3987.1055,99.5908
3988.0696,99.5855
3989.0339,99.5725
3989.9980,99.5491
3990.9624,99.5181
3991.9265,99.4885
3992.8909,99.4706
3993.8550,99.4706
3994.8193,99.4901
3995.7834,99.5182
3996.7478,99.5421
3997.7119,99.5549
3998.6763,99.5572
3999.6404,99.5551
4000.6047,99.3489

##### Extended Information
[Comments]
Sample name
Comment
User
Division
Company,HANKYONG

[Detailed Information]
Creation date,4/24/2024 11:53 AM

Data array type,Linear data array
Horizontal axis,Wavenumber [cm-1]
Vertical axis,%T
Start,649.893 cm-1
End,4000.6 cm-1
Data interval,0.964233 cm-1
Data points,3476    

[Measurement Information]
Model Name,FT/IR-4700typeA
Serial Number,D056761788

Accessory,ATR PRO ONE
Accessory S/N,C174761809
Incident angle,45 deg

Measurement Date,4/24/2024 11:52 AM

Light Source,Standard
Detector,TGS
Accumulation,32
Resolution,4 cm-1
Zero Filling,On
Apodization,Cosine
Gain,Auto (4)
Aperture,Auto (7.1 mm)
Scanning Speed,Auto (2 mm/sec)
Filter,Auto (30000 Hz)

