TITLE,
DATA TYPE,INFRARED SPECTRUM
ORIGIN,JASCO
OWNER,
DATE,24/04/24
TIME,10:49:25
SPECTROMETER/DATA SYSTEM,
LOCALE,1033
RESOLUTION,
DELTAX,0.964233
XUNITS,1/CM
YUNITS,TRANSMITTANCE
FIRSTX,  649.8934
LASTX, 4000.6047
NPOINTS,    3476
FIRSTY,    99.96490
MAXY,   100.99649
MINY,    66.81319
XYDATA
649.8934,99.9649
650.8576,99.994
651.8218,100.032
652.7861,100.08
653.7503,100.138
654.7145,100.2
655.6788,100.251
656.6430,100.199
657.6072,100.096
658.5715,99.9665
659.5357,99.8374
660.4999,99.7392
661.4642,99.6814
662.4284,99.641
663.3926,99.5689
664.3569,99.4027
665.3211,99.0735
666.2853,98.5231
667.2496,97.783
668.2138,97.0974
669.1780,96.7978
670.1423,96.9046
671.1065,97.1646
672.0707,97.3728
673.0350,97.4517
673.9992,97.3979
674.9634,97.2457
675.9277,97.0509
676.8919,96.8695
677.8561,96.7331
678.8204,96.6417
679.7846,96.5754
680.7488,96.5104
681.7131,96.4312
682.6773,96.3343
683.6415,96.2292
684.6058,96.1335
685.5700,96.0649
686.5342,96.0313
687.4985,96.0248
688.4627,96.0244
689.4269,96.0057
690.3912,95.9538
691.3554,95.8744
692.3196,95.7998
693.2839,95.778
694.2481,95.8384
695.2123,95.9653
696.1766,96.1156
697.1408,96.246
698.1050,96.3236
699.0693,96.328
700.0335,96.2552
700.9977,96.1187
701.9620,95.9437
702.9262,95.7583
703.8904,95.5845
704.8547,95.4315
705.8189,95.2955
706.7831,95.1634
707.7474,95.0188
708.7116,94.8479
709.6758,94.6416
710.6401,94.396
711.6043,94.1111
712.5685,93.7893
713.5328,93.4333
714.4970,93.0457
715.4612,92.7039
716.4255,92.2651
717.3897,91.8342
718.3539,91.4512
719.3182,91.1596
720.2824,90.9832
721.2466,90.9045
722.2109,90.866
723.1751,90.7959
724.1393,90.6408
725.1036,90.3863
726.0678,90.0574
727.0320,89.7035
727.9963,89.3755
728.9605,89.1056
729.9247,88.898
730.8890,88.734
731.8532,88.5815
732.8174,88.4035
733.7817,88.1639
734.7459,87.832
735.7101,87.3876
736.6744,86.8261
737.6386,86.1609
738.6028,85.4198
739.5671,84.6394
740.5313,83.8583
741.4955,83.1129
742.4598,82.4369
743.4240,81.8609
744.3882,81.4113
745.3525,81.1052
746.3167,80.9461
747.2809,80.9213
748.2452,81.0045
749.2094,81.1626
750.1736,81.3637
751.1379,81.5837
752.1021,81.8088
753.0663,82.0328
754.0306,82.2532
754.9948,82.466
755.9590,82.663
756.9233,82.8315
757.8875,82.9562
758.8517,83.0227
759.8160,83.0234
760.7802,82.9608
761.7444,82.8477
762.7087,82.7017
763.6729,82.5383
764.6371,82.3665
765.6014,82.1907
766.5656,82.0191
767.5298,81.8711
768.4941,81.7769
769.4583,81.7665
770.4225,81.8547
771.3868,82.0304
772.3510,82.2574
773.3152,82.4873
774.2795,82.6749
775.2437,82.7905
776.2079,82.8216
777.1722,82.7691
778.1364,82.6405
779.1006,82.4466
780.0649,82.2009
781.0291,81.9206
781.9933,81.6266
782.9576,81.3418
783.9218,81.0874
784.8860,80.8779
785.8503,80.7171
786.8145,80.5956
787.7787,80.4936
788.7430,80.3863
789.7072,80.2532
790.6714,80.0842
791.6357,79.8813
792.5999,79.6544
793.5641,79.4144
794.5284,79.1681
795.4926,78.9173
796.4568,78.6612
797.4211,78.3998
798.3853,78.1342
799.3495,77.8657
800.3138,77.5939
801.2780,77.3177
802.2422,77.0385
803.2065,76.7635
804.1707,76.506
805.1349,76.2826
806.0992,76.1074
807.0634,75.9874
808.0276,75.9214
808.9919,75.9014
809.9561,75.9167
810.9203,75.9575
811.8846,76.0184
812.8488,76.0996
813.8130,76.2061
814.7773,76.3443
815.7415,76.5168
816.7057,76.7175
817.6700,76.9306
818.6342,77.1343
819.5984,77.3087
820.5627,77.4429
821.5269,77.5383
822.4911,77.6044
823.4554,77.6524
824.4196,77.6894
825.3839,77.7174
826.3481,77.7363
827.3123,77.7467
828.2766,77.7509
829.2408,77.7505
830.2050,77.7442
831.1693,77.7289
832.1335,77.702
833.0977,77.6639
834.0620,77.6178
835.0262,77.5657
835.9904,77.5056
836.9547,77.4314
837.9189,77.3364
838.8831,77.2174
839.8474,77.0773
840.8116,76.9222
841.7758,76.7581
842.7401,76.5878
843.7043,76.4108
844.6685,76.2264
845.6328,76.0355
846.5970,75.8415
847.5612,75.6482
848.5255,75.4593
849.4897,75.2779
850.4539,75.1093
851.4182,74.9616
852.3824,74.8449
853.3466,74.7669
854.3109,74.7287
855.2751,74.7222
856.2393,74.7319
857.2036,74.7402
858.1678,74.7346
859.1320,74.7112
860.0963,74.6758
861.0605,74.6395
862.0247,74.6135
862.9890,74.6047
863.9532,74.6144
864.9174,74.6401
865.8817,74.6783
866.8459,74.7277
867.8101,74.7886
868.7744,74.8629
869.7386,74.9506
870.7028,75.0478
871.6671,75.1445
872.6313,75.2245
873.5955,75.2692
874.5598,75.2636
875.5240,75.2038
876.4882,75.1014
877.4525,74.9815
878.4167,74.8744
879.3809,74.8044
880.3452,74.7823
881.3094,74.8057
882.2736,74.8659
883.2379,74.9554
884.2021,75.0717
885.1663,75.215
886.1306,75.3833
887.0948,75.5716
888.0590,75.7752
889.0233,75.9959
889.9875,76.2446
890.9517,76.5369
891.9160,76.8846
892.8802,77.2883
893.8444,77.7362
894.8087,78.2103
895.7729,78.6942
896.7371,79.1783
897.7014,79.6591
898.6656,80.1352
899.6298,80.6027
900.5941,81.055
901.5583,81.485
902.5225,81.889
903.4868,82.2681
904.4510,82.6268
905.4152,82.9692
906.3795,83.2945
907.3437,83.5956
908.3079,83.8609
909.2722,84.0788
910.2364,84.2444
911.2006,84.3631
912.1649,84.4491
913.1291,84.5209
914.0933,84.5939
915.0576,84.6766
916.0218,84.7698
916.9860,84.8701
917.9503,84.975
918.9145,85.085
919.8787,85.2038
920.8430,85.3354
921.8072,85.4818
922.7714,85.6404
923.7357,85.8035
924.6999,85.96
925.6641,86.0985
926.6284,86.2119
927.5926,86.302
928.5568,86.3826
929.5211,86.4792
930.4853,86.6263
931.4495,86.8612
932.4138,87.2178
933.3780,87.72
934.3422,88.376
935.3065,89.1748
936.2707,90.0871
937.2349,91.0696
938.1992,92.0741
939.1634,93.0573
940.1276,93.9885
941.0919,94.8517
942.0561,95.6428
943.0203,96.3642
943.9846,97.0189
944.9488,97.6076
945.9130,98.1289
946.8773,98.5811
947.8415,98.9644
948.8057,99.2822
949.7700,99.5406
950.7342,99.7479
951.6984,99.9128
952.6627,100.043
953.6269,100.145
954.5911,100.222
955.5554,100.278
956.5196,100.316
957.4838,100.338
958.4481,100.347
959.4123,100.344
960.3765,100.326
961.3408,100.29
962.3050,100.235
963.2692,100.162
964.2335,100.078
965.1977,99.9925
966.1619,99.9185
967.1262,99.8643
968.0904,99.8336
969.0546,99.8252
970.0189,99.8345
970.9831,99.856
971.9473,99.8845
972.9116,99.9155
973.8758,99.945
974.8400,99.9699
975.8043,99.9875
976.7685,99.995
977.7327,99.9888
978.6970,99.9647
979.6612,99.9188
980.6254,99.8485
981.5897,99.7574
982.5539,99.6903
983.5181,99.6
984.4824,99.4886
985.4466,99.3598
986.4108,99.2204
987.3751,99.0808
988.3393,98.9527
989.3035,98.8459
990.2678,98.7654
991.2320,98.7099
992.1962,98.674
993.1605,98.6498
994.1247,98.6303
995.0889,98.6098
996.0532,98.5859
997.0174,98.5582
997.9816,98.5284
998.9459,98.4979
999.9101,98.4659
1000.8743,98.4276
1001.8386,98.3741
1002.8028,98.2925
1003.7670,98.1687
1004.7313,97.9895
1005.6955,97.7455
1006.6597,97.4329
1007.6240,97.0534
1008.5882,96.6131
1009.5524,96.1193
1010.5167,95.5789
1011.4809,94.9979
1012.4451,94.3815
1013.4094,93.7346
1014.3736,93.06
1015.3378,92.3579
1016.3021,91.627
1017.2663,90.8688
1018.2305,90.0896
1019.1948,89.2966
1020.1590,88.487
1021.1232,87.6379
1022.0875,86.709
1023.0517,85.6616
1024.0160,84.4884
1024.9802,83.2327
1025.9445,81.9818
1026.9087,80.8324
1027.8729,79.8464
1028.8372,79.0233
1029.8014,78.305
1030.7656,77.6111
1031.7299,76.8809
1032.6941,76.1009
1033.6583,75.3048
1034.6226,74.5524
1035.5868,73.9014
1036.5510,73.3869
1037.5153,73.0122
1038.4795,72.752
1039.4437,72.5624
1040.4080,72.395
1041.3722,72.2122
1042.3364,71.9977
1043.3007,71.7591
1044.2649,71.5201
1045.2291,71.3081
1046.1934,71.1438
1047.1576,71.0382
1048.1218,70.9976
1049.0861,71.0287
1050.0503,71.1382
1051.0145,71.327
1051.9788,71.5833
1052.9430,71.8849
1053.9072,72.2113
1054.8715,72.5589
1055.8357,72.9473
1056.7999,73.4072
1057.7642,73.9513
1058.7284,74.5449
1059.6926,75.0977
1060.6569,75.4883
1061.6211,75.6167
1062.5853,75.4575
1063.5496,75.0831
1064.5138,74.6386
1065.4780,74.2773
1066.4423,74.0903
1067.4065,74.0667
1068.3707,74.1072
1069.3350,74.0791
1070.2992,73.8805
1071.2634,73.4794
1072.2277,72.9113
1073.1919,72.2472
1074.1561,71.5545
1075.1204,70.8756
1076.0846,70.2274
1077.0488,69.6154
1078.0131,69.0457
1078.9773,68.5301
1079.9415,68.081
1080.9058,67.7062
1081.8700,67.4049
1082.8342,67.1699
1083.7985,66.9927
1084.7627,66.8707
1085.7269,66.8132
1086.6912,66.8433
1087.6554,66.9924
1088.6196,67.2864
1089.5839,67.7308
1090.5481,68.3027
1091.5123,68.9558
1092.4766,69.6391
1093.4408,70.3184
1094.4050,70.9885
1095.3693,71.6693
1096.3335,72.3895
1097.2977,73.168
1098.2620,74.0039
1099.2262,74.8788
1100.1904,75.7668
1101.1547,76.6453
1102.1189,77.4995
1103.0831,78.322
1104.0474,79.1095
1105.0116,79.8603
1105.9758,80.5742
1106.9401,81.2538
1107.9043,81.9059
1108.8685,82.5422
1109.8328,83.1788
1110.7970,83.8357
1111.7612,84.5333
1112.7255,85.2881
1113.6897,86.1084
1114.6539,86.9912
1115.6182,87.9227
1116.5824,88.8822
1117.5466,89.8472
1118.5109,90.7979
1119.4751,91.7192
1120.4393,92.6015
1121.4036,93.4399
1122.3678,94.2333
1123.3320,94.9834
1124.2963,95.6924
1125.2605,96.3608
1126.2247,96.9864
1127.1890,97.5641
1128.1532,98.0869
1129.1174,98.5475
1130.0817,98.9392
1131.0459,99.257
1132.0101,99.4975
1132.9744,99.6603
1133.9386,99.7477
1134.9028,99.7631
1135.8671,99.7083
1136.8313,99.5714
1137.7955,99.3252
1138.7598,98.9962
1139.7240,98.585
1140.6882,98.1013
1141.6525,97.5631
1142.6167,96.9929
1143.5809,96.4127
1144.5452,95.842
1145.5094,95.2979
1146.4736,94.7968
1147.4379,94.3537
1148.4021,93.9795
1149.3663,93.6768
1150.3306,93.4381
1151.2948,93.2467
1152.2590,93.0811
1153.2233,92.9195
1154.1875,92.7447
1155.1517,92.5451
1156.1160,92.3158
1157.0802,92.057
1158.0444,91.7715
1159.0087,91.4616
1159.9729,91.1272
1160.9371,90.7643
1161.9014,90.3679
1162.8656,89.9347
1163.8298,89.4662
1164.7941,88.969
1165.7583,88.4525
1166.7225,87.9258
1167.6868,87.3956
1168.6510,86.866
1169.6152,86.3392
1170.5795,85.817
1171.5437,85.3006
1172.5079,84.7905
1173.4722,84.2867
1174.4364,83.7883
1175.4006,83.295
1176.3649,82.8069
1177.3291,82.3238
1178.2933,81.8445
1179.2576,81.3664
1180.2218,80.8871
1181.1860,80.4052
1182.1503,79.9215
1183.1145,79.4399
1184.0787,78.9659
1185.0430,78.5059
1186.0072,78.0664
1186.9714,77.6531
1187.9357,77.2709
1188.8999,76.923
1189.8641,76.6101
1190.8284,76.3304
1191.7926,76.0805
1192.7568,75.8572
1193.7211,75.6585
1194.6853,75.4848
1195.6495,75.3372
1196.6138,75.2162
1197.5780,75.1199
1198.5422,75.0438
1199.5065,75.0063
1200.4707,74.9503
1201.4349,74.8988
1202.3992,74.8504
1203.3634,74.8047
1204.3276,74.7619
1205.2919,74.7223
1206.2561,74.6861
1207.2203,74.6534
1208.1846,74.6246
1209.1488,74.5999
1210.1130,74.5794
1211.0773,74.5626
1212.0415,74.5477
1213.0057,74.5317
1213.9700,74.5116
1214.9342,74.485
1215.8984,74.4517
1216.8627,74.4133
1217.8269,74.3725
1218.7911,74.3309
1219.7554,74.2878
1220.7196,74.2411
1221.6838,74.1883
1222.6481,74.1284
1223.6123,74.062
1224.5765,73.9915
1225.5408,73.9184
1226.5050,73.8422
1227.4692,73.7587
1228.4335,73.6601
1229.3977,73.5381
1230.3619,73.3896
1231.3262,73.2235
1232.2904,73.0649
1233.2546,72.9514
1234.2189,72.9221
1235.1831,73.0031
1236.1473,73.1991
1237.1116,73.4956
1238.0758,73.8719
1239.0400,74.3139
1240.0043,74.8175
1240.9685,75.378
1241.9327,75.973
1242.8970,76.5535
1243.8612,77.0522
1244.8254,77.4079
1245.7897,77.5922
1246.7539,77.6201
1247.7181,77.5405
1248.6824,77.4124
1249.6466,77.281
1250.6108,77.1667
1251.5751,77.0683
1252.5393,76.9755
1253.5035,76.8801
1254.4678,76.7817
1255.4320,76.6868
1256.3962,76.6056
1257.3605,76.5488
1258.3247,76.526
1259.2889,76.5441
1260.2532,76.6054
1261.2174,76.7057
1262.1816,76.8336
1263.1459,76.9731
1264.1101,77.1058
1265.0743,77.2142
1266.0386,77.284
1267.0028,77.3053
1267.9670,77.2734
1268.9313,77.1899
1269.8955,77.0625
1270.8597,76.9053
1271.8240,76.7369
1272.7882,76.5773
1273.7524,76.4443
1274.7167,76.3497
1275.6809,76.2983
1276.6451,76.2884
1277.6094,76.3139
1278.5736,76.367
1279.5378,76.4404
1280.5021,76.5288
1281.4663,76.6301
1282.4305,76.7448
1283.3948,76.8763
1284.3590,77.0311
1285.3232,77.2181
1286.2875,77.4477
1287.2517,77.7283
1288.2159,78.0633
1289.1802,78.4479
1290.1444,78.8693
1291.1086,79.3097
1292.0729,79.751
1293.0371,80.1782
1294.0013,80.5806
1294.9656,80.9514
1295.9298,81.2862
1296.8940,81.5825
1297.8583,81.8398
1298.8225,82.0598
1299.7867,82.247
1300.7510,82.4081
1301.7152,82.5506
1302.6794,82.6818
1303.6437,82.8077
1304.6079,82.932
1305.5721,83.0557
1306.5364,83.1781
1307.5006,83.2973
1308.4648,83.4129
1309.4291,83.5269
1310.3933,83.6443
1311.3575,83.7703
1312.3218,83.9075
1313.2860,84.0534
1314.2502,84.2022
1315.2145,84.3484
1316.1787,84.4911
1317.1429,84.6339
1318.1072,84.7818
1319.0714,84.9361
1320.0356,85.0921
1320.9999,85.2411
1321.9641,85.3762
1322.9283,85.4954
1323.8926,85.6013
1324.8568,85.6989
1325.8210,85.7918
1326.7853,85.8812
1327.7495,85.9667
1328.7137,86.0474
1329.6780,86.1237
1330.6422,86.1946
1331.6064,86.2561
1332.5707,86.3
1333.5349,86.3156
1334.4991,86.2954
1335.4634,86.2395
1336.4276,86.1605
1337.3918,86.0841
1338.3561,86.042
1339.3203,86.0519
1340.2845,86.101
1341.2488,86.1527
1342.2130,86.1725
1343.1772,86.1443
1344.1415,86.0687
1345.1057,85.9551
1346.0699,85.8153
1347.0342,85.6604
1347.9984,85.4991
1348.9626,85.336
1349.9269,85.1721
1350.8911,85.0075
1351.8553,84.8435
1352.8196,84.6844
1353.7838,84.5361
1354.7480,84.4032
1355.7123,84.2853
1356.6765,84.1766
1357.6407,84.0705
1358.6050,83.965
1359.5692,83.8672
1360.5334,83.7949
1361.4977,83.7696
1362.4619,83.7986
1363.4261,83.8606
1364.3904,83.9192
1365.3546,83.9499
1366.3188,83.9488
1367.2831,83.923
1368.2473,83.8782
1369.2115,83.8129
1370.1758,83.7197
1371.1400,83.5906
1372.1042,83.4253
1373.0685,83.2381
1374.0327,83.057
1374.9969,82.9091
1375.9612,82.8039
1376.9254,82.7369
1377.8896,82.7074
1378.8539,82.7285
1379.8181,82.819
1380.7823,82.9884
1381.7466,83.2281
1382.7108,83.5228
1383.6750,83.8702
1384.6393,84.2888
1385.6035,84.8005
1386.5677,85.3842
1387.5320,85.9422
1388.4962,86.3419
1389.4604,86.5095
1390.4247,86.4671
1391.3889,86.299
1392.3531,86.1122
1393.3174,86.0156
1394.2816,86.0931
1395.2458,86.356
1396.2101,86.717
1397.1743,87.0367
1398.1385,87.2115
1399.1028,87.2188
1400.0670,87.0978
1401.0313,86.9067
1401.9955,86.6937
1402.9597,86.4921
1403.9240,86.3257
1404.8882,86.2112
1405.8524,86.1526
1406.8167,86.1383
1407.7809,86.1526
1408.7451,86.1886
1409.7094,86.2493
1410.6736,86.3361
1411.6378,86.4376
1412.6021,86.5315
1413.5663,86.5991
1414.5305,86.6373
1415.4948,86.656
1416.4590,86.67
1417.4232,86.6938
1418.3875,86.7295
1419.3517,86.7482
1420.3159,86.704
1421.2802,86.5764
1422.2444,86.38
1423.2086,86.1414
1424.1729,85.8814
1425.1371,85.6104
1426.1013,85.3284
1427.0656,85.0259
1428.0298,84.6901
1428.9940,84.3181
1429.9583,83.9282
1430.9225,83.5546
1431.8867,83.2267
1432.8510,82.9527
1433.8152,82.7199
1434.7794,82.5058
1435.7437,82.2967
1436.7079,82.0938
1437.6721,81.8948
1438.6364,81.6862
1439.6006,81.4652
1440.5648,81.2461
1441.5291,81.0452
1442.4933,80.87
1443.4575,80.7168
1444.4218,80.5757
1445.3860,80.4362
1446.3502,80.2917
1447.3145,80.1387
1448.2787,79.9735
1449.2429,79.7902
1450.2072,79.5882
1451.1714,79.3792
1452.1356,79.1836
1453.0999,79.0167
1454.0641,78.8788
1455.0283,78.7682
1455.9926,78.7296
1456.9568,78.8555
1457.9210,79.1047
1458.8853,79.2824
1459.8495,79.3157
1460.8137,79.2791
1461.7780,79.2686
1462.7422,79.3565
1463.7064,79.5929
1464.6707,79.9858
1465.6349,80.4676
1466.5991,80.9361
1467.5634,81.3471
1468.5276,81.7347
1469.4918,82.1682
1470.4561,82.7211
1471.4203,83.4623
1472.3845,84.4111
1473.3488,85.4438
1474.3130,86.3294
1475.2772,86.9393
1476.2415,87.3121
1477.2057,87.5458
1478.1699,87.7208
1479.1342,87.8924
1480.0984,88.0986
1481.0626,88.3587
1482.0269,88.6661
1482.9911,88.9893
1483.9553,89.2887
1484.9196,89.535
1485.8838,89.7168
1486.8480,89.846
1487.8123,89.9666
1488.7765,90.1404
1489.7407,90.3711
1490.7050,90.574
1491.6692,90.6767
1492.6334,90.6789
1493.5977,90.611
1494.5619,90.4854
1495.5261,90.2889
1496.4904,90.0058
1497.4546,89.6464
1498.4188,89.2422
1499.3831,88.822
1500.3473,88.4161
1501.3115,88.0626
1502.2758,87.7906
1503.2400,87.5981
1504.2042,87.4347
1505.1685,87.2127
1506.1327,86.9021
1507.0969,86.65
1508.0612,86.5553
1509.0254,86.4716
1509.9896,86.3045
1510.9539,86.0892
1511.9181,85.8836
1512.8823,85.7328
1513.8466,85.6806
1514.8108,85.7717
1515.7750,86.0306
1516.7393,86.4372
1517.7035,86.9452
1518.6677,87.5349
1519.6320,88.2376
1520.5962,89.0821
1521.5604,90.0102
1522.5247,90.8883
1523.4889,91.634
1524.4531,92.284
1525.4174,92.9236
1526.3816,93.5824
1527.3458,94.2099
1528.3101,94.7387
1529.2743,95.154
1530.2385,95.5058
1531.2028,95.8786
1532.1670,96.3423
1533.1312,96.8903
1534.0955,97.4233
1535.0597,97.842
1536.0239,98.1343
1536.9882,98.3435
1537.9524,98.4928
1538.9166,98.5736
1539.8809,98.6413
1540.8451,98.8677
1541.8093,99.2751
1542.7736,99.6694
1543.7378,99.9515
1544.7020,100.136
1545.6663,100.243
1546.6305,100.282
1547.5947,100.267
1548.5590,100.224
1549.5232,100.173
1550.4874,100.118
1551.4517,100.045
1552.4159,99.9436
1553.3801,99.8247
1554.3444,99.7265
1555.3086,99.6544
1556.2728,99.5922
1557.2371,99.5278
1558.2013,99.5374
1559.1655,99.6401
1560.1298,99.6015
1561.0940,99.311
1562.0582,98.8919
1563.0225,98.4792
1563.9867,98.1357
1564.9509,97.8655
1565.9152,97.6381
1566.8794,97.4067
1567.8436,97.1302
1568.8079,96.7987
1569.7721,96.4381
1570.7363,96.0839
1571.7006,95.7563
1572.6648,95.4494
1573.6290,95.1227
1574.5933,94.7134
1575.5575,94.1954
1576.5217,93.6345
1577.4860,93.1217
1578.4502,92.6686
1579.4144,92.2351
1580.3787,91.7881
1581.3429,91.3088
1582.3071,90.7894
1583.2714,90.2357
1584.2356,89.6634
1585.1998,89.0835
1586.1641,88.4961
1587.1283,87.8968
1588.0925,87.2865
1589.0568,86.6732
1590.0210,86.0666
1590.9852,85.4717
1591.9495,84.8913
1592.9137,84.3336
1593.8779,83.8162
1594.8422,83.3595
1595.8064,82.975
1596.7706,82.6581
1597.7349,82.3935
1598.6991,82.1652
1599.6633,81.9641
1600.6276,81.79
1601.5918,81.6477
1602.5560,81.5426
1603.5203,81.4751
1604.4845,81.4418
1605.4487,81.4416
1606.4130,81.4815
1607.3772,81.5755
1608.3414,81.7313
1609.3057,81.9331
1610.2699,82.1432
1611.2341,82.3285
1612.1984,82.4853
1613.1626,82.6401
1614.1268,82.839
1615.0911,83.1381
1616.0553,83.563
1617.0195,84.0382
1617.9838,84.4258
1618.9480,84.6744
1619.9122,84.8502
1620.8765,85.0535
1621.8407,85.3522
1622.8049,85.7551
1623.7692,86.2092
1624.7334,86.6429
1625.6976,87.0302
1626.6619,87.4012
1627.6261,87.7901
1628.5903,88.1889
1629.5546,88.5573
1630.5188,88.8685
1631.4830,89.1331
1632.4473,89.3825
1633.4115,89.6476
1634.3757,89.9649
1635.3400,90.3771
1636.3042,90.8503
1637.2684,91.243
1638.2327,91.4764
1639.1969,91.5977
1640.1611,91.6825
1641.1254,91.7744
1642.0896,91.8826
1643.0538,91.9917
1644.0181,92.0686
1644.9823,92.085
1645.9465,92.0608
1646.9108,92.0567
1647.8750,92.1001
1648.8392,92.1846
1649.8035,92.3123
1650.7677,92.4678
1651.7319,92.5911
1652.6962,92.6359
1653.6604,92.6092
1654.6246,92.4575
1655.5889,92.1498
1656.5531,91.7836
1657.5173,91.464
1658.4816,91.2279
1659.4458,91.0529
1660.4100,90.8902
1661.3743,90.7053
1662.3385,90.4989
1663.3027,90.2898
1664.2670,90.0889
1665.2312,89.897
1666.1954,89.7028
1667.1597,89.4796
1668.1239,89.2053
1669.0881,88.9018
1670.0524,88.6351
1671.0166,88.4495
1671.9808,88.3339
1672.9451,88.2553
1673.9093,88.1818
1674.8735,88.0788
1675.8378,87.9133
1676.8020,87.6739
1677.7662,87.3886
1678.7305,87.1124
1679.6947,86.8935
1680.6589,86.7432
1681.6232,86.63
1682.5874,86.51
1683.5516,86.3778
1684.5159,86.2404
1685.4801,86.0529
1686.4443,85.7856
1687.4086,85.4722
1688.3728,85.1636
1689.3370,84.8928
1690.3013,84.671
1691.2655,84.4916
1692.2297,84.3303
1693.1940,84.1482
1694.1582,83.9044
1695.1224,83.5844
1696.0867,83.2344
1697.0509,82.9613
1698.0151,82.8609
1698.9794,82.9164
1699.9436,82.9913
1700.9078,82.9549
1701.8721,82.7901
1702.8363,82.5775
1703.8005,82.4198
1704.7648,82.3876
1705.7290,82.4945
1706.6932,82.6956
1707.6575,82.9192
1708.6217,83.1168
1709.5859,83.2861
1710.5502,83.4513
1711.5144,83.633
1712.4786,83.8355
1713.4429,84.0571
1714.4071,84.3215
1715.3713,84.7135
1716.3356,85.3428
1717.2998,86.1631
1718.2640,86.915
1719.2283,87.413
1720.1925,87.702
1721.1567,87.923
1722.1210,88.1834
1723.0852,88.5201
1724.0494,88.9107
1725.0137,89.3048
1725.9779,89.6584
1726.9421,89.9558
1727.9064,90.2095
1728.8706,90.446
1729.8348,90.6926
1730.7991,90.9759
1731.7633,91.3257
1732.7275,91.7629
1733.6918,92.2404
1734.6560,92.6258
1735.6202,92.8306
1736.5845,92.9001
1737.5487,92.9414
1738.5129,93.0333
1739.4772,93.1958
1740.4414,93.3993
1741.4056,93.5937
1742.3699,93.7434
1743.3341,93.8478
1744.2983,93.9302
1745.2626,94.0159
1746.2268,94.1225
1747.1910,94.2685
1748.1553,94.4828
1749.1195,94.7854
1750.0837,95.1405
1751.0480,95.4565
1752.0122,95.6637
1752.9764,95.7672
1753.9407,95.8196
1754.9049,95.8727
1755.8691,95.9531
1756.8334,96.062
1757.7976,96.1876
1758.7618,96.3223
1759.7261,96.4692
1760.6903,96.6354
1761.6545,96.8173
1762.6188,96.9951
1763.5830,97.1479
1764.5472,97.2707
1765.5115,97.3754
1766.4757,97.4751
1767.4399,97.5719
1768.4042,97.6576
1769.3684,97.7277
1770.3326,97.7991
1771.2969,97.9111
1772.2611,98.0862
1773.2253,98.287
1774.1896,98.4482
1775.1538,98.5453
1776.1180,98.6042
1777.0823,98.6638
1778.0465,98.7468
1779.0107,98.8547
1779.9750,98.977
1780.9392,99.1023
1781.9034,99.2241
1782.8677,99.3392
1783.8319,99.441
1784.7961,99.5183
1785.7604,99.563
1786.7246,99.5793
1787.6888,99.5835
1788.6531,99.5904
1789.6173,99.6031
1790.5815,99.6172
1791.5458,99.6352
1792.5100,99.6617
1793.4742,99.6826
1794.4385,99.6797
1795.4027,99.6593
1796.3669,99.645
1797.3312,99.6535
1798.2954,99.6854
1799.2596,99.7318
1800.2239,99.7831
1801.1881,99.8305
1802.1523,99.8655
1803.1166,99.8832
1804.0808,99.8846
1805.0450,99.8745
1806.0093,99.8707
1806.9735,99.8713
1807.9377,99.8697
1808.9020,99.8722
1809.8662,99.8881
1810.8304,99.9224
1811.7947,99.9698
1812.7589,100.02
1813.7231,100.064
1814.6874,100.1
1815.6516,100.131
1816.6158,100.156
1817.5801,100.175
1818.5443,100.187
1819.5085,100.196
1820.4728,100.206
1821.4370,100.222
1822.4012,100.242
1823.3655,100.26
1824.3297,100.266
1825.2939,100.256
1826.2582,100.229
1827.2224,100.199
1828.1866,100.183
1829.1509,100.199
1830.1151,100.247
1831.0793,100.3
1832.0436,100.332
1833.0078,100.334
1833.9720,100.32
1834.9363,100.307
1835.9005,100.301
1836.8647,100.302
1837.8290,100.306
1838.7932,100.314
1839.7574,100.332
1840.7217,100.362
1841.6859,100.395
1842.6501,100.418
1843.6144,100.425
1844.5786,100.421
1845.5428,100.411
1846.5071,100.395
1847.4713,100.384
1848.4355,100.385
1849.3998,100.403
1850.3640,100.428
1851.3282,100.449
1852.2925,100.457
1853.2567,100.455
1854.2209,100.448
1855.1852,100.44
1856.1494,100.434
1857.1136,100.43
1858.0779,100.427
1859.0421,100.429
1860.0063,100.434
1860.9706,100.437
1861.9348,100.429
1862.8990,100.405
1863.8633,100.364
1864.8275,100.311
1865.7917,100.256
1866.7560,100.216
1867.7202,100.215
1868.6844,100.268
1869.6487,100.35
1870.6129,100.418
1871.5771,100.45
1872.5414,100.453
1873.5056,100.446
1874.4698,100.443
1875.4341,100.444
1876.3983,100.447
1877.3625,100.448
1878.3268,100.447
1879.2910,100.445
1880.2552,100.442
1881.2195,100.439
1882.1837,100.432
1883.1479,100.421
1884.1122,100.405
1885.0764,100.389
1886.0406,100.377
1887.0049,100.371
1887.9691,100.372
1888.9333,100.379
1889.8976,100.386
1890.8618,100.385
1891.8260,100.375
1892.7903,100.358
1893.7545,100.343
1894.7188,100.337
1895.6830,100.343
1896.6472,100.357
1897.6115,100.371
1898.5757,100.379
1899.5399,100.378
1900.5042,100.37
1901.4684,100.358
1902.4326,100.346
1903.3969,100.332
1904.3611,100.312
1905.3253,100.286
1906.2896,100.255
1907.2538,100.225
1908.2180,100.206
1909.1823,100.204
1910.1465,100.217
1911.1107,100.236
1912.0750,100.25
1913.0392,100.257
1914.0034,100.262
1914.9677,100.267
1915.9319,100.272
1916.8961,100.273
1917.8604,100.263
1918.8246,100.236
1919.7888,100.195
1920.7531,100.154
1921.7173,100.128
1922.6815,100.127
1923.6458,100.151
1924.6100,100.185
1925.5742,100.215
1926.5385,100.232
1927.5027,100.238
1928.4669,100.236
1929.4312,100.232
1930.3954,100.227
1931.3596,100.224
1932.3239,100.222
1933.2881,100.224
1934.2523,100.231
1935.2166,100.241
1936.1808,100.249
1937.1450,100.252
1938.1093,100.246
1939.0735,100.233
1940.0377,100.216
1941.0020,100.197
1941.9662,100.186
1942.9304,100.185
1943.8947,100.195
1944.8589,100.21
1945.8231,100.229
1946.7874,100.25
1947.7516,100.272
1948.7158,100.294
1949.6801,100.311
1950.6443,100.32
1951.6085,100.324
1952.5728,100.326
1953.5370,100.33
1954.5012,100.338
1955.4655,100.348
1956.4297,100.358
1957.3939,100.366
1958.3582,100.371
1959.3224,100.373
1960.2866,100.373
1961.2509,100.37
1962.2151,100.363
1963.1793,100.352
1964.1436,100.339
1965.1078,100.33
1966.0720,100.329
1967.0363,100.34
1968.0005,100.36
1968.9647,100.382
1969.9290,100.4
1970.8932,100.412
1971.8574,100.419
1972.8217,100.422
1973.7859,100.423
1974.7501,100.423
1975.7144,100.422
1976.6786,100.421
1977.6428,100.419
1978.6071,100.417
1979.5713,100.416
1980.5355,100.414
1981.4998,100.41
1982.4640,100.405
1983.4282,100.398
1984.3925,100.389
1985.3567,100.379
1986.3209,100.366
1987.2852,100.35
1988.2494,100.334
1989.2136,100.319
1990.1779,100.308
1991.1421,100.304
1992.1063,100.309
1993.0706,100.317
1994.0348,100.324
1994.9990,100.325
1995.9633,100.321
1996.9275,100.314
1997.8917,100.307
1998.8560,100.302
1999.8202,100.301
2000.7844,100.301
2001.7487,100.301
2002.7129,100.298
2003.6771,100.292
2004.6414,100.282
2005.6056,100.271
2006.5698,100.259
2007.5341,100.249
2008.4983,100.241
2009.4625,100.236
2010.4268,100.233
2011.3910,100.228
2012.3552,100.22
2013.3195,100.207
2014.2837,100.191
2015.2479,100.174
2016.2122,100.161
2017.1764,100.155
2018.1406,100.155
2019.1049,100.159
2020.0691,100.163
2021.0333,100.166
2021.9976,100.167
2022.9618,100.168
2023.9260,100.169
2024.8903,100.171
2025.8545,100.17
2026.8187,100.167
2027.7830,100.161
2028.7472,100.152
2029.7114,100.142
2030.6757,100.133
2031.6399,100.127
2032.6041,100.123
2033.5684,100.124
2034.5326,100.127
2035.4968,100.131
2036.4611,100.133
2037.4253,100.132
2038.3895,100.126
2039.3538,100.119
2040.3180,100.113
2041.2822,100.111
2042.2465,100.116
2043.2107,100.125
2044.1749,100.135
2045.1392,100.142
2046.1034,100.145
2047.0676,100.145
2048.0320,100.142
2048.9961,100.139
2049.9604,100.136
2050.9246,100.136
2051.8889,100.138
2052.8530,100.141
2053.8174,100.144
2054.7815,100.145
2055.7458,100.145
2056.7100,100.143
2057.6743,100.141
2058.6384,100.138
2059.6028,100.133
2060.5669,100.126
2061.5313,100.116
2062.4954,100.106
2063.4597,100.098
2064.4238,100.096
2065.3882,100.101
2066.3523,100.111
2067.3167,100.122
2068.2808,100.131
2069.2451,100.137
2070.2092,100.138
2071.1736,100.138
2072.1377,100.136
2073.1021,100.134
2074.0662,100.132
2075.0305,100.13
2075.9946,100.128
2076.9590,100.126
2077.9231,100.124
2078.8875,100.123
2079.8516,100.123
2080.8159,100.123
2081.7800,100.123
2082.7444,100.123
2083.7085,100.121
2084.6729,100.119
2085.6370,100.116
2086.6013,100.113
2087.5654,100.111
2088.5298,100.109
2089.4939,100.106
2090.4583,100.102
2091.4224,100.097
2092.3867,100.094
2093.3508,100.093
2094.3152,100.093
2095.2793,100.094
2096.2437,100.094
2097.2078,100.092
2098.1721,100.088
2099.1362,100.083
2100.1006,100.077
2101.0647,100.075
2102.0291,100.076
2102.9932,100.079
2103.9575,100.082
2104.9216,100.084
2105.8860,100.084
2106.8501,100.079
2107.8145,100.071
2108.7786,100.059
2109.7429,100.047
2110.7070,100.036
2111.6714,100.028
2112.6355,100.025
2113.5999,100.027
2114.5640,100.033
2115.5283,100.04
2116.4924,100.047
2117.4568,100.05
2118.4209,100.048
2119.3853,100.043
2120.3494,100.034
2121.3137,100.026
2122.2778,100.018
2123.2422,100.012
2124.2063,100.007
2125.1707,100.005
2126.1348,100.004
2127.0991,100.005
2128.0632,100.008
2129.0276,100.012
2129.9917,100.016
2130.9561,100.019
2131.9202,100.017
2132.8845,100.011
2133.8486,100.004
2134.8130,99.9974
2135.7771,99.9949
2136.7415,99.9976
2137.7056,100.005
2138.6699,100.015
2139.6340,100.025
2140.5984,100.033
2141.5625,100.037
2142.5269,100.039
2143.4910,100.038
2144.4553,100.036
2145.4194,100.034
2146.3838,100.033
2147.3479,100.032
2148.3123,100.031
2149.2764,100.03
2150.2407,100.028
2151.2048,100.025
2152.1692,100.021
2153.1333,100.016
2154.0977,100.014
2155.0618,100.013
2156.0261,100.015
2156.9902,100.017
2157.9546,100.019
2158.9187,100.018
2159.8831,100.015
2160.8472,100.011
2161.8115,100.006
2162.7756,100.002
2163.7400,99.999
2164.7041,99.9961
2165.6685,99.9928
2166.6326,99.9883
2167.5969,99.9824
2168.5610,99.9752
2169.5254,99.9678
2170.4895,99.9613
2171.4539,99.9566
2172.4180,99.9542
2173.3823,99.9536
2174.3464,99.9537
2175.3108,99.9535
2176.2749,99.9524
2177.2393,99.9504
2178.2034,99.9477
2179.1677,99.9444
2180.1318,99.9399
2181.0962,99.9338
2182.0603,99.926
2183.0247,99.917
2183.9888,99.9083
2184.9531,99.9014
2185.9172,99.8973
2186.8816,99.8961
2187.8457,99.897
2188.8101,99.8987
2189.7742,99.8999
2190.7385,99.8999
2191.7026,99.8985
2192.6670,99.8961
2193.6311,99.8931
2194.5955,99.8902
2195.5596,99.8871
2196.5239,99.8834
2197.4880,99.8782
2198.4524,99.8712
2199.4165,99.8628
2200.3809,99.8543
2201.3450,99.847
2202.3093,99.8419
2203.2734,99.8389
2204.2378,99.8371
2205.2019,99.8355
2206.1663,99.8336
2207.1304,99.8314
2208.0947,99.8291
2209.0588,99.8263
2210.0232,99.822
2210.9873,99.8153
2211.9517,99.8065
2212.9158,99.7967
2213.8801,99.7881
2214.8442,99.7819
2215.8086,99.7781
2216.7727,99.7751
2217.7371,99.7707
2218.7012,99.7639
2219.6655,99.7552
2220.6296,99.7467
2221.5940,99.74
2222.5581,99.736
2223.5225,99.7338
2224.4866,99.7315
2225.4509,99.7271
2226.4150,99.7192
2227.3794,99.7083
2228.3435,99.6953
2229.3079,99.6815
2230.2720,99.6681
2231.2363,99.6559
2232.2004,99.6453
2233.1648,99.6365
2234.1289,99.6299
2235.0933,99.6254
2236.0574,99.6225
2237.0217,99.6196
2237.9858,99.6153
2238.9502,99.6082
2239.9143,99.598
2240.8787,99.5855
2241.8428,99.5716
2242.8071,99.557
2243.7712,99.5419
2244.7356,99.5263
2245.6997,99.5107
2246.6641,99.4965
2247.6282,99.485
2248.5925,99.4767
2249.5566,99.4702
2250.5210,99.463
2251.4851,99.4525
2252.4495,99.4371
2253.4136,99.4173
2254.3779,99.3949
2255.3420,99.3721
2256.3064,99.3504
2257.2705,99.3306
2258.2349,99.3126
2259.1990,99.2959
2260.1633,99.2804
2261.1274,99.266
2262.0918,99.2529
2263.0559,99.2414
2264.0203,99.2321
2264.9844,99.225
2265.9487,99.2195
2266.9128,99.2141
2267.8772,99.2066
2268.8413,99.1955
2269.8057,99.1809
2270.7698,99.1646
2271.7341,99.1495
2272.6982,99.1382
2273.6626,99.1317
2274.6267,99.1297
2275.5911,99.1313
2276.5552,99.1354
2277.5195,99.1416
2278.4836,99.1493
2279.4480,99.1572
2280.4121,99.1631
2281.3765,99.1643
2282.3406,99.1588
2283.3049,99.1455
2284.2690,99.1245
2285.2334,99.097
2286.1975,99.0647
2287.1619,99.0295
2288.1260,98.9931
2289.0903,98.9571
2290.0544,98.9221
2291.0188,98.8887
2291.9829,98.8578
2292.9473,98.8305
2293.9114,98.8083
2294.8757,98.792
2295.8398,98.7821
2296.8042,98.7782
2297.7683,98.7807
2298.7327,98.7911
2299.6968,98.8115
2300.6611,98.8429
2301.6252,98.8835
2302.5896,98.9268
2303.5537,98.9638
2304.5181,98.9859
2305.4822,98.9898
2306.4465,98.9802
2307.4106,98.9695
2308.3750,98.9729
2309.3391,99.0013
2310.3035,99.0556
2311.2676,99.1254
2312.2319,99.1947
2313.1960,99.2495
2314.1604,99.2854
2315.1245,99.3088
2316.0889,99.333
2317.0530,99.371
2318.0173,99.4286
2318.9814,99.4985
2319.9458,99.5587
2320.9099,99.5767
2321.8743,99.5213
2322.8384,99.3808
2323.8027,99.1741
2324.7668,98.9483
2325.7312,98.7602
2326.6953,98.6529
2327.6597,98.6391
2328.6238,98.6946
2329.5881,98.7683
2330.5522,98.8045
2331.5166,98.7687
2332.4807,98.6633
2333.4451,98.521
2334.4092,98.384
2335.3735,98.2817
2336.3376,98.2187
2337.3020,98.1762
2338.2661,98.1244
2339.2305,98.0423
2340.1946,97.9372
2341.1589,97.8589
2342.1230,97.8895
2343.0874,98.0817
2344.0515,98.3633
2345.0159,98.5526
2345.9800,98.5295
2346.9443,98.3409
2347.9084,98.1291
2348.8728,98.0169
2349.8369,98.0462
2350.8013,98.1836
2351.7654,98.321
2352.7297,98.3536
2353.6938,98.2597
2354.6582,98.0966
2355.6223,97.923
2356.5867,97.7458
2357.5508,97.5586
2358.5151,97.3918
2359.4792,97.3003
2360.4436,97.3095
2361.4077,97.397
2362.3721,97.5273
2363.3362,97.6867
2364.3005,97.8828
2365.2646,98.1223
2366.2290,98.3978
2367.1931,98.6903
2368.1575,98.9776
2369.1216,99.2392
2370.0859,99.4592
2371.0500,99.6296
2372.0144,99.7505
2372.9785,99.8257
2373.9429,99.8582
2374.9070,99.8476
2375.8713,99.7925
2376.8354,99.6953
2377.7998,99.565
2378.7639,99.4171
2379.7283,99.2697
2380.6924,99.1393
2381.6567,99.0371
2382.6208,98.9676
2383.5852,98.9295
2384.5493,98.9168
2385.5137,98.9216
2386.4778,98.9355
2387.4421,98.9518
2388.4063,98.9657
2389.3706,98.9757
2390.3347,98.9821
2391.2991,98.987
2392.2632,98.9921
2393.2275,98.9982
2394.1917,99.0049
2395.1560,99.0113
2396.1201,99.0171
2397.0845,99.0227
2398.0486,99.029
2399.0129,99.0362
2399.9771,99.0435
2400.9414,99.049
2401.9055,99.051
2402.8699,99.0492
2403.8340,99.0451
2404.7983,99.0415
2405.7625,99.041
2406.7268,99.0446
2407.6909,99.0515
2408.6553,99.0604
2409.6194,99.0697
2410.5837,99.0786
2411.5479,99.0873
2412.5122,99.0959
2413.4763,99.1044
2414.4407,99.1124
2415.4048,99.1194
2416.3691,99.1256
2417.3333,99.1318
2418.2976,99.139
2419.2617,99.1473
2420.2261,99.1562
2421.1902,99.1644
2422.1545,99.171
2423.1187,99.1759
2424.0830,99.1802
2425.0471,99.1855
2426.0115,99.1926
2426.9756,99.2016
2427.9399,99.2112
2428.9041,99.2201
2429.8684,99.2273
2430.8325,99.2329
2431.7969,99.2376
2432.7610,99.2422
2433.7253,99.2474
2434.6895,99.2532
2435.6538,99.2593
2436.6179,99.2658
2437.5823,99.2724
2438.5464,99.2794
2439.5107,99.287
2440.4749,99.2953
2441.4392,99.3046
2442.4033,99.3149
2443.3677,99.326
2444.3318,99.3371
2445.2961,99.3471
2446.2603,99.3548
2447.2246,99.3595
2448.1887,99.3612
2449.1531,99.3608
2450.1172,99.3594
2451.0815,99.3585
2452.0457,99.3591
2453.0100,99.3616
2453.9741,99.3658
2454.9385,99.3706
2455.9026,99.3753
2456.8669,99.3793
2457.8311,99.3826
2458.7954,99.3855
2459.7595,99.3885
2460.7239,99.3918
2461.6880,99.3953
2462.6523,99.3991
2463.6165,99.4034
2464.5808,99.4086
2465.5449,99.4147
2466.5093,99.4213
2467.4734,99.4277
2468.4377,99.4331
2469.4019,99.4375
2470.3662,99.4414
2471.3303,99.4459
2472.2947,99.4519
2473.2588,99.4593
2474.2231,99.4672
2475.1873,99.4743
2476.1516,99.4795
2477.1157,99.4827
2478.0801,99.4848
2479.0442,99.4877
2480.0085,99.4929
2480.9727,99.5011
2481.9370,99.5115
2482.9011,99.5224
2483.8655,99.5322
2484.8296,99.5399
2485.7939,99.546
2486.7581,99.5516
2487.7224,99.5577
2488.6865,99.5648
2489.6509,99.5722
2490.6150,99.5787
2491.5793,99.583
2492.5435,99.5845
2493.5078,99.5836
2494.4719,99.5819
2495.4363,99.5815
2496.4004,99.5841
2497.3647,99.5903
2498.3289,99.5991
2499.2932,99.6082
2500.2573,99.6154
2501.2217,99.6198
2502.1858,99.6225
2503.1501,99.6253
2504.1143,99.6302
2505.0786,99.6371
2506.0427,99.6443
2507.0071,99.6491
2507.9712,99.6495
2508.9355,99.645
2509.8997,99.637
2510.8640,99.6277
2511.8281,99.6197
2512.7925,99.615
2513.7566,99.615
2514.7209,99.6201
2515.6851,99.6292
2516.6494,99.6398
2517.6135,99.6484
2518.5779,99.6519
2519.5420,99.649
2520.5063,99.6416
2521.4705,99.6332
2522.4348,99.6279
2523.3989,99.628
2524.3633,99.6333
2525.3274,99.6408
2526.2917,99.6473
2527.2559,99.65
2528.2202,99.6486
2529.1843,99.6442
2530.1487,99.6393
2531.1128,99.6357
2532.0771,99.6346
2533.0413,99.6355
2534.0056,99.6375
2534.9697,99.6395
2535.9341,99.6409
2536.8982,99.6418
2537.8625,99.6423
2538.8267,99.6423
2539.7910,99.6411
2540.7551,99.6385
2541.7195,99.6349
2542.6836,99.6323
2543.6479,99.6333
2544.6121,99.6395
2545.5764,99.65
2546.5405,99.6616
2547.5049,99.6702
2548.4690,99.6726
2549.4333,99.6691
2550.3975,99.6625
2551.3618,99.6572
2552.3259,99.6561
2553.2903,99.6602
2554.2544,99.6679
2555.2188,99.6771
2556.1829,99.6862
2557.1472,99.695
2558.1113,99.7036
2559.0757,99.7116
2560.0398,99.7174
2561.0042,99.7191
2561.9683,99.7154
2562.9326,99.7074
2563.8967,99.6983
2564.8611,99.6924
2565.8252,99.693
2566.7896,99.7012
2567.7537,99.7148
2568.7180,99.73
2569.6821,99.7427
2570.6465,99.7503
2571.6106,99.752
2572.5750,99.7492
2573.5391,99.7446
2574.5034,99.7412
2575.4675,99.7418
2576.4319,99.7482
2577.3960,99.7608
2578.3604,99.7782
2579.3245,99.7973
2580.2888,99.8144
2581.2529,99.8267
2582.2173,99.8332
2583.1814,99.8344
2584.1458,99.8321
2585.1099,99.8279
2586.0742,99.8227
2587.0383,99.8173
2588.0027,99.8126
2588.9668,99.8101
2589.9312,99.8117
2590.8953,99.8181
2591.8596,99.8285
2592.8237,99.8402
2593.7881,99.8501
2594.7522,99.856
2595.7166,99.8573
2596.6807,99.8551
2597.6450,99.8513
2598.6091,99.8478
2599.5735,99.8458
2600.5376,99.8456
2601.5020,99.8474
2602.4661,99.8508
2603.4304,99.8561
2604.3945,99.8633
2605.3589,99.8723
2606.3230,99.8828
2607.2874,99.8939
2608.2515,99.9043
2609.2158,99.9125
2610.1799,99.9175
2611.1443,99.919
2612.1084,99.9179
2613.0728,99.9155
2614.0369,99.9132
2615.0012,99.9116
2615.9653,99.9112
2616.9297,99.9119
2617.8938,99.914
2618.8582,99.9176
2619.8223,99.923
2620.7866,99.9298
2621.7507,99.9374
2622.7151,99.945
2623.6792,99.952
2624.6436,99.958
2625.6077,99.9631
2626.5720,99.9675
2627.5361,99.9713
2628.5005,99.9745
2629.4646,99.9773
2630.4290,99.9798
2631.3931,99.9827
2632.3574,99.9867
2633.3215,99.9923
2634.2859,99.9997
2635.2500,100.008
2636.2144,100.018
2637.1785,100.028
2638.1428,100.037
2639.1069,100.046
2640.0713,100.055
2641.0354,100.064
2641.9998,100.073
2642.9639,100.081
2643.9282,100.088
2644.8923,100.094
2645.8567,100.1
2646.8208,100.105
2647.7852,100.108
2648.7493,100.109
2649.7136,100.108
2650.6777,100.105
2651.6421,100.101
2652.6062,100.1
2653.5706,100.104
2654.5347,100.111
2655.4990,100.12
2656.4631,100.13
2657.4275,100.138
2658.3916,100.143
2659.3560,100.145
2660.3201,100.145
2661.2844,100.146
2662.2485,100.15
2663.2129,100.156
2664.1770,100.165
2665.1414,100.176
2666.1055,100.187
2667.0698,100.196
2668.0339,100.204
2668.9983,100.209
2669.9624,100.214
2670.9268,100.219
2671.8909,100.225
2672.8552,100.234
2673.8193,100.244
2674.7837,100.256
2675.7478,100.267
2676.7122,100.276
2677.6763,100.281
2678.6406,100.282
2679.6047,100.278
2680.5691,100.272
2681.5332,100.266
2682.4976,100.263
2683.4617,100.261
2684.4260,100.261
2685.3901,100.26
2686.3545,100.26
2687.3186,100.258
2688.2830,100.257
2689.2471,100.257
2690.2114,100.258
2691.1755,100.261
2692.1399,100.265
2693.1040,100.27
2694.0684,100.275
2695.0325,100.28
2695.9968,100.284
2696.9609,100.287
2697.9253,100.288
2698.8894,100.289
2699.8538,100.289
2700.8179,100.289
2701.7822,100.289
2702.7463,100.288
2703.7107,100.286
2704.6748,100.283
2705.6392,100.279
2706.6033,100.274
2707.5676,100.27
2708.5317,100.266
2709.4961,100.262
2710.4602,100.261
2711.4246,100.261
2712.3887,100.263
2713.3530,100.263
2714.3171,100.259
2715.2815,100.25
2716.2456,100.236
2717.2100,100.222
2718.1741,100.21
2719.1384,100.203
2720.1025,100.202
2721.0669,100.203
2722.0310,100.203
2722.9954,100.198
2723.9595,100.188
2724.9238,100.174
2725.8879,100.16
2726.8523,100.148
2727.8164,100.139
2728.7808,100.131
2729.7449,100.126
2730.7092,100.121
2731.6733,100.12
2732.6377,100.124
2733.6018,100.132
2734.5662,100.143
2735.5303,100.153
2736.4946,100.16
2737.4587,100.164
2738.4231,100.169
2739.3872,100.178
2740.3516,100.195
2741.3157,100.22
2742.2800,100.25
2743.2441,100.282
2744.2085,100.312
2745.1726,100.337
2746.1370,100.357
2747.1011,100.371
2748.0654,100.38
2749.0295,100.386
2749.9939,100.391
2750.9580,100.397
2751.9224,100.405
2752.8865,100.417
2753.8508,100.429
2754.8149,100.44
2755.7793,100.445
2756.7434,100.445
2757.7078,100.439
2758.6719,100.429
2759.6362,100.419
2760.6003,100.411
2761.5647,100.407
2762.5288,100.407
2763.4932,100.407
2764.4573,100.407
2765.4216,100.403
2766.3857,100.397
2767.3501,100.389
2768.3142,100.382
2769.2786,100.377
2770.2427,100.375
2771.2070,100.372
2772.1711,100.367
2773.1355,100.355
2774.0996,100.338
2775.0640,100.315
2776.0281,100.289
2776.9924,100.263
2777.9565,100.236
2778.9209,100.206
2779.8850,100.173
2780.8494,100.135
2781.8135,100.096
2782.7778,100.058
2783.7419,100.027
2784.7063,100.003
2785.6704,99.987
2786.6348,99.9744
2787.5989,99.9607
2788.5632,99.9424
2789.5273,99.9181
2790.4917,99.8885
2791.4558,99.856
2792.4202,99.8236
2793.3843,99.7934
2794.3486,99.7664
2795.3127,99.7418
2796.2771,99.7175
2797.2412,99.6909
2798.2056,99.6596
2799.1697,99.623
2800.1340,99.5823
2801.0981,99.5397
2802.0625,99.4977
2803.0266,99.4578
2803.9910,99.4196
2804.9551,99.3813
2805.9194,99.3401
2806.8835,99.2936
2807.8479,99.2399
2808.8120,99.1789
2809.7764,99.1118
2810.7405,99.0405
2811.7048,98.9668
2812.6689,98.8917
2813.6333,98.8148
2814.5974,98.7346
2815.5618,98.6491
2816.5259,98.5563
2817.4902,98.4549
2818.4543,98.3441
2819.4187,98.224
2820.3828,98.0956
2821.3472,97.9601
2822.3113,97.819
2823.2756,97.6728
2824.2397,97.5209
2825.2041,97.3613
2826.1682,97.1911
2827.1326,97.0078
2828.0967,96.8098
2829.0610,96.5961
2830.0251,96.366
2830.9895,96.1189
2831.9536,95.8538
2832.9180,95.5702
2833.8821,95.2681
2834.8464,94.9486
2835.8105,94.6127
2836.7749,94.2611
2837.7390,93.894
2838.7034,93.5112
2839.6675,93.1118
2840.6318,92.6938
2841.5959,92.2537
2842.5603,91.7872
2843.5244,91.2922
2844.4888,90.773
2845.4529,90.2431
2846.4172,89.7253
2847.3813,89.2457
2848.3457,88.8258
2849.3098,88.4746
2850.2742,88.1868
2851.2383,87.9472
2852.2026,87.7389
2853.1667,87.5503
2854.1311,87.3778
2855.0952,87.2229
2856.0596,87.0859
2857.0237,86.9624
2857.9880,86.8424
2858.9521,86.714
2859.9165,86.5677
2860.8806,86.3995
2861.8450,86.2103
2862.8091,86.005
2863.7734,85.7896
2864.7375,85.571
2865.7019,85.3561
2866.6660,85.1521
2867.6304,84.9661
2868.5945,84.8047
2869.5588,84.673
2870.5229,84.5738
2871.4873,84.5076
2872.4514,84.4711
2873.4158,84.4575
2874.3799,84.4571
2875.3442,84.4586
2876.3083,84.4511
2877.2727,84.4264
2878.2368,84.3801
2879.2012,84.3126
2880.1653,84.2295
2881.1296,84.1401
2882.0938,84.0555
2883.0581,83.9852
2884.0222,83.9347
2884.9866,83.9029
2885.9507,83.8816
2886.9150,83.8569
2887.8792,83.8137
2888.8435,83.7407
2889.8076,83.6367
2890.7720,83.512
2891.7361,83.3837
2892.7004,83.2647
2893.6646,83.152
2894.6289,83.0223
2895.5930,82.8418
2896.5574,82.5858
2897.5215,82.2585
2898.4858,81.8987
2899.4500,81.5666
2900.4143,81.3158
2901.3784,81.168
2902.3428,81.1039
2903.3069,81.0743
2904.2712,81.0254
2905.2354,80.9198
2906.1997,80.7461
2907.1638,80.513
2908.1282,80.2374
2909.0923,79.9349
2910.0566,79.6171
2911.0208,79.2936
2911.9851,78.9739
2912.9492,78.6672
2913.9136,78.3806
2914.8777,78.1173
2915.8420,77.8773
2916.8062,77.6593
2917.7705,77.4632
2918.7346,77.291
2919.6990,77.1469
2920.6631,77.0365
2921.6274,76.9655
2922.5916,76.9381
2923.5559,76.9554
2924.5200,77.0151
2925.4844,77.1124
2926.4485,77.2426
2927.4128,77.4021
2928.3770,77.5884
2929.3413,77.7995
2930.3054,78.0323
2931.2698,78.2827
2932.2339,78.5466
2933.1982,78.8216
2934.1624,79.1066
2935.1267,79.4001
2936.0908,79.6985
2937.0552,79.9942
2938.0193,80.2775
2938.9836,80.5389
2939.9478,80.7732
2940.9121,80.9809
2941.8762,81.1668
2942.8406,81.3367
2943.8047,81.4919
2944.7690,81.6269
2945.7332,81.7301
2946.6975,81.7884
2947.6616,81.7932
2948.6260,81.7448
2949.5901,81.6523
2950.5544,81.5302
2951.5186,81.3933
2952.4829,81.2528
2953.4470,81.1152
2954.4114,80.984
2955.3755,80.8627
2956.3398,80.7565
2957.3040,80.6721
2958.2683,80.6148
2959.2324,80.5864
2960.1968,80.5836
2961.1609,80.5988
2962.1252,80.6233
2963.0894,80.6508
2964.0537,80.6795
2965.0178,80.7122
2965.9822,80.7543
2966.9463,80.8122
2967.9106,80.892
2968.8748,80.9998
2969.8391,81.1425
2970.8032,81.326
2971.7676,81.5528
2972.7317,81.8198
2973.6960,82.1174
2974.6602,82.433
2975.6245,82.7549
2976.5886,83.0762
2977.5530,83.3961
2978.5171,83.7176
2979.4814,84.0436
2980.4456,84.3715
2981.4099,84.6899
2982.3740,84.9797
2983.3384,85.2219
2984.3025,85.4098
2985.2668,85.5617
2986.2310,85.7235
2987.1953,85.9569
2988.1594,86.3136
2989.1238,86.8092
2990.0879,87.4108
2991.0522,88.0481
2992.0164,88.6435
2992.9807,89.1441
2993.9448,89.5397
2994.9092,89.8579
2995.8733,90.1428
2996.8376,90.4307
2997.8018,90.7373
2998.7661,91.0595
2999.7302,91.3862
3000.6946,91.7092
3001.6587,92.0277
3002.6230,92.3461
3003.5872,92.6695
3004.5515,92.9998
3005.5156,93.3334
3006.4800,93.6631
3007.4441,93.9799
3008.4084,94.2768
3009.3726,94.5517
3010.3369,94.8089
3011.3010,95.0569
3012.2654,95.3042
3013.2295,95.5539
3014.1938,95.8021
3015.1580,96.0408
3016.1223,96.2622
3017.0864,96.4633
3018.0508,96.6465
3019.0149,96.817
3019.9792,96.9798
3020.9434,97.137
3021.9077,97.2889
3022.8718,97.4349
3023.8362,97.5747
3024.8003,97.7083
3025.7646,97.8349
3026.7288,97.9535
3027.6931,98.0634
3028.6572,98.1657
3029.6216,98.2633
3030.5857,98.3598
3031.5500,98.4577
3032.5142,98.5567
3033.4785,98.6546
3034.4426,98.7485
3035.4070,98.837
3036.3711,98.9201
3037.3354,98.9988
3038.2996,99.0734
3039.2639,99.1429
3040.2280,99.205
3041.1924,99.2573
3042.1565,99.2985
3043.1208,99.3292
3044.0850,99.3524
3045.0493,99.3721
3046.0134,99.392
3046.9778,99.4137
3047.9419,99.4358
3048.9063,99.4549
3049.8704,99.467
3050.8347,99.4706
3051.7988,99.4676
3052.7632,99.4632
3053.7273,99.4627
3054.6917,99.4704
3055.6558,99.4871
3056.6201,99.4828
3057.5842,99.4732
3058.5486,99.4612
3059.5127,99.4423
3060.4771,99.4133
3061.4412,99.374
3062.4055,99.3277
3063.3696,99.2811
3064.3340,99.2413
3065.2981,99.2128
3066.2625,99.195
3067.2266,99.1827
3068.1909,99.1694
3069.1550,99.1501
3070.1194,99.1237
3071.0835,99.0919
3072.0479,99.0573
3073.0120,99.021
3073.9763,98.9822
3074.9404,98.9388
3075.9048,98.8895
3076.8689,98.8354
3077.8333,98.78
3078.7974,98.7283
3079.7617,98.6848
3080.7258,98.6512
3081.6902,98.6258
3082.6543,98.6041
3083.6187,98.5811
3084.5828,98.5528
3085.5471,98.5176
3086.5112,98.4758
3087.4756,98.4277
3088.4397,98.3737
3089.4041,98.3138
3090.3682,98.2486
3091.3325,98.1804
3092.2966,98.1123
3093.2610,98.0466
3094.2251,97.9835
3095.1895,97.9203
3096.1536,97.8537
3097.1179,97.782
3098.0820,97.7065
3099.0464,97.6313
3100.0105,97.5605
3100.9749,97.4962
3101.9390,97.4374
3102.9033,97.3806
3103.8674,97.3225
3104.8318,97.261
3105.7959,97.1961
3106.7603,97.1289
3107.7244,97.0605
3108.6887,96.9914
3109.6528,96.9213
3110.6172,96.8497
3111.5813,96.7761
3112.5457,96.7005
3113.5098,96.6233
3114.4741,96.5458
3115.4382,96.4701
3116.4026,96.3992
3117.3667,96.3354
3118.3311,96.2795
3119.2952,96.2301
3120.2595,96.1834
3121.2236,96.1349
3122.1880,96.0811
3123.1521,96.0211
3124.1165,95.9559
3125.0806,95.8882
3126.0449,95.82
3127.0090,95.7516
3127.9734,95.6821
3128.9375,95.6103
3129.9019,95.5364
3130.8660,95.4622
3131.8303,95.3907
3132.7944,95.3236
3133.7588,95.261
3134.7229,95.2007
3135.6873,95.1396
3136.6514,95.0759
3137.6157,95.0096
3138.5798,94.9421
3139.5442,94.8753
3140.5083,94.8093
3141.4727,94.7425
3142.4368,94.6722
3143.4011,94.5963
3144.3652,94.5146
3145.3296,94.4294
3146.2937,94.3447
3147.2581,94.2651
3148.2222,94.1938
3149.1865,94.1313
3150.1506,94.0747
3151.1150,94.0185
3152.0791,93.9569
3153.0435,93.8862
3154.0076,93.8067
3154.9719,93.7221
3155.9360,93.6382
3156.9004,93.5589
3157.8645,93.4849
3158.8289,93.4136
3159.7930,93.341
3160.7573,93.2645
3161.7214,93.184
3162.6858,93.1021
3163.6499,93.0218
3164.6143,92.9454
3165.5784,92.8734
3166.5427,92.8053
3167.5068,92.74
3168.4712,92.6761
3169.4353,92.6435
3170.3997,92.5733
3171.3638,92.4943
3172.3281,92.4055
3173.2922,92.3098
3174.2566,92.2141
3175.2207,92.126
3176.1851,92.0506
3177.1492,91.988
3178.1135,91.9328
3179.0776,91.8772
3180.0420,91.8154
3181.0061,91.7457
3181.9705,91.6709
3182.9346,91.5958
3183.8989,91.5239
3184.8630,91.4559
3185.8274,91.3899
3186.7915,91.3226
3187.7559,91.2521
3188.7200,91.1783
3189.6843,91.1032
3190.6484,91.029
3191.6128,90.9572
3192.5769,90.8883
3193.5413,90.8216
3194.5054,90.7565
3195.4697,90.6927
3196.4338,90.6302
3197.3982,90.5686
3198.3623,90.5074
3199.3267,90.4463
3200.2908,90.3855
3201.2551,90.3256
3202.2192,90.2674
3203.1836,90.2113
3204.1477,90.1565
3205.1121,90.1022
3206.0762,90.0475
3207.0405,89.9922
3208.0046,89.9361
3208.9690,89.8782
3209.9331,89.8174
3210.8975,89.7531
3211.8616,89.6868
3212.8259,89.6226
3213.7900,89.5656
3214.7544,89.5192
3215.7185,89.4822
3216.6829,89.4486
3217.6470,89.4104
3218.6113,89.3614
3219.5754,89.3004
3220.5398,89.2315
3221.5039,89.1614
3222.4683,89.096
3223.4324,89.0384
3224.3967,88.989
3225.3608,88.947
3226.3252,88.912
3227.2893,88.8832
3228.2537,88.8586
3229.2178,88.8336
3230.1821,88.8027
3231.1462,88.7614
3232.1106,88.7093
3233.0747,88.6504
3234.0391,88.5915
3235.0032,88.5387
3235.9675,88.4944
3236.9316,88.4569
3237.8960,88.4209
3238.8601,88.3811
3239.8245,88.3347
3240.7886,88.2826
3241.7529,88.2296
3242.7170,88.1821
3243.6814,88.1448
3244.6455,88.1181
3245.6099,88.097
3246.5740,88.0734
3247.5383,88.0402
3248.5024,87.9949
3249.4668,87.9408
3250.4309,87.8849
3251.3953,87.8339
3252.3594,87.7907
3253.3237,87.7544
3254.2878,87.7211
3255.2522,87.6879
3256.2163,87.6542
3257.1807,87.6213
3258.1448,87.5905
3259.1091,87.5615
3260.0732,87.532
3261.0376,87.4995
3262.0017,87.4624
3262.9661,87.4212
3263.9302,87.378
3264.8945,87.3353
3265.8586,87.2947
3266.8230,87.2565
3267.7871,87.219
3268.7515,87.1797
3269.7156,87.1367
3270.6799,87.0896
3271.6440,87.0411
3272.6084,86.9955
3273.5725,86.9571
3274.5369,86.9276
3275.5010,86.9053
3276.4653,86.8866
3277.4294,86.8678
3278.3938,86.8469
3279.3579,86.8236
3280.3223,86.7983
3281.2864,86.771
3282.2507,86.7418
3283.2148,86.7111
3284.1792,86.6802
3285.1433,86.6502
3286.1077,86.6208
3287.0718,86.5898
3288.0361,86.5544
3289.0002,86.5135
3289.9646,86.4692
3290.9287,86.4263
3291.8931,86.3897
3292.8572,86.3619
3293.8215,86.3416
3294.7856,86.3249
3295.7500,86.3071
3296.7141,86.2849
3297.6785,86.2569
3298.6426,86.2243
3299.6069,86.19
3300.5710,86.158
3301.5354,86.1309
3302.4995,86.109
3303.4639,86.0894
3304.4280,86.0676
3305.3923,86.0404
3306.3564,86.0088
3307.3208,85.9782
3308.2849,85.9551
3309.2493,85.9433
3310.2134,85.9411
3311.1777,85.9426
3312.1418,85.9406
3313.1062,85.9311
3314.0703,85.914
3315.0347,85.8917
3315.9988,85.8664
3316.9631,85.8384
3317.9272,85.8076
3318.8916,85.7748
3319.8557,85.7431
3320.8201,85.7167
3321.7842,85.6982
3322.7485,85.6868
3323.7126,85.678
3324.6770,85.6663
3325.6411,85.6481
3326.6055,85.6238
3327.5696,85.5968
3328.5339,85.5714
3329.4980,85.5503
3330.4624,85.5342
3331.4265,85.5227
3332.3909,85.5154
3333.3550,85.5122
3334.3193,85.5125
3335.2834,85.5139
3336.2478,85.5125
3337.2119,85.5045
3338.1763,85.4885
3339.1404,85.4668
3340.1047,85.4436
3341.0688,85.4225
3342.0332,85.4045
3342.9973,85.3876
3343.9617,85.3693
3344.9258,85.3495
3345.8901,85.3312
3346.8542,85.3194
3347.8186,85.3172
3348.7827,85.3231
3349.7471,85.3314
3350.7112,85.3348
3351.6755,85.328
3352.6396,85.3102
3353.6040,85.2846
3354.5681,85.2567
3355.5325,85.2322
3356.4966,85.2153
3357.4609,85.208
3358.4250,85.2092
3359.3894,85.2144
3360.3535,85.2171
3361.3179,85.2113
3362.2820,85.1954
3363.2463,85.1737
3364.2104,85.1551
3365.1748,85.1487
3366.1389,85.1579
3367.1033,85.1789
3368.0674,85.2024
3369.0317,85.2196
3369.9958,85.2264
3370.9602,85.2247
3371.9243,85.2194
3372.8887,85.2151
3373.8528,85.214
3374.8171,85.216
3375.7813,85.2208
3376.7456,85.2282
3377.7097,85.2381
3378.6741,85.2485
3379.6382,85.2567
3380.6025,85.2599
3381.5667,85.2582
3382.5310,85.2548
3383.4951,85.2547
3384.4595,85.2619
3385.4236,85.2769
3386.3879,85.2974
3387.3521,85.3195
3388.3164,85.3402
3389.2805,85.3576
3390.2449,85.3706
3391.2090,85.3788
3392.1733,85.3836
3393.1375,85.389
3394.1018,85.4018
3395.0659,85.4277
3396.0303,85.4674
3396.9944,85.5147
3397.9587,85.558
3398.9229,85.587
3399.8872,85.5989
3400.8513,85.6002
3401.8157,85.6029
3402.7798,85.6171
3403.7441,85.6461
3404.7083,85.6853
3405.6726,85.7269
3406.6367,85.765
3407.6011,85.798
3408.5652,85.8282
3409.5295,85.858
3410.4937,85.8884
3411.4580,85.9182
3412.4221,85.9455
3413.3865,85.9693
3414.3506,85.989
3415.3149,86.0052
3416.2791,86.0192
3417.2434,86.034
3418.2075,86.0554
3419.1719,86.0897
3420.1360,86.1406
3421.1003,86.2053
3422.0645,86.2747
3423.0288,86.3375
3423.9929,86.3861
3424.9573,86.4201
3425.9214,86.4461
3426.8857,86.4743
3427.8499,86.5131
3428.8142,86.5658
3429.7783,86.6299
3430.7427,86.6995
3431.7068,86.769
3432.6711,86.8356
3433.6353,86.8987
3434.5996,86.9587
3435.5637,87.0146
3436.5281,87.0637
3437.4922,87.103
3438.4565,87.1319
3439.4207,87.1527
3440.3850,87.1704
3441.3491,87.1908
3442.3135,87.2179
3443.2776,87.2537
3444.2419,87.2986
3445.2061,87.3529
3446.1704,87.4173
3447.1345,87.4912
3448.0989,87.5722
3449.0630,87.6555
3450.0273,87.7362
3450.9915,87.8109
3451.9558,87.8777
3452.9199,87.936
3453.8843,87.9858
3454.8484,88.028
3455.8127,88.0647
3456.7769,88.0988
3457.7412,88.1346
3458.7053,88.1756
3459.6697,88.2242
3460.6338,88.2797
3461.5981,88.3396
3462.5623,88.401
3463.5266,88.4635
3464.4907,88.5298
3465.4551,88.6034
3466.4192,88.6853
3467.3835,88.7711
3468.3477,88.8518
3469.3120,88.9185
3470.2761,88.968
3471.2405,89.0055
3472.2046,89.0423
3473.1689,89.0904
3474.1331,89.1555
3475.0974,89.2337
3476.0615,89.3139
3477.0259,89.3847
3477.9900,89.4399
3478.9543,89.482
3479.9185,89.5196
3480.8828,89.5628
3481.8469,89.6172
3482.8113,89.6819
3483.7754,89.751
3484.7397,89.8197
3485.7039,89.8868
3486.6682,89.9553
3487.6323,90.0292
3488.5967,90.1097
3489.5608,90.1935
3490.5251,90.2745
3491.4893,90.3473
3492.4536,90.4113
3493.4177,90.4697
3494.3821,90.5272
3495.3462,90.5852
3496.3105,90.6391
3497.2747,90.6818
3498.2390,90.7098
3499.2031,90.7281
3500.1675,90.751
3501.1316,90.7963
3502.0959,90.8759
3503.0601,90.9855
3504.0244,91.1059
3504.9885,91.2163
3505.9529,91.3075
3506.9170,91.3835
3507.8813,91.4545
3508.8455,91.5288
3509.8098,91.6085
3510.7739,91.6898
3511.7383,91.7689
3512.7024,91.846
3513.6667,91.925
3514.6309,92.0088
3515.5952,92.0953
3516.5593,92.1777
3517.5237,92.2484
3518.4878,92.3044
3519.4521,92.3487
3520.4163,92.3883
3521.3806,92.4299
3522.3447,92.477
3523.3091,92.5296
3524.2732,92.5875
3525.2375,92.6537
3526.2017,92.7354
3527.1660,92.8382
3528.1301,92.9602
3529.0945,93.0889
3530.0586,93.2071
3531.0229,93.3037
3531.9871,93.3796
3532.9514,93.4464
3533.9155,93.5197
3534.8799,93.6108
3535.8440,93.7208
3536.8083,93.8378
3537.7725,93.9433
3538.7368,94.0216
3539.7009,94.0683
3540.6653,94.0913
3541.6294,94.1079
3542.5938,94.1411
3543.5579,94.2146
3544.5222,94.3405
3545.4863,94.5074
3546.4507,94.6814
3547.4148,94.8288
3548.3792,94.9383
3549.3433,95.0232
3550.3076,95.1088
3551.2717,95.2164
3552.2361,95.353
3553.2002,95.5072
3554.1646,95.659
3555.1287,95.7942
3556.0930,95.9115
3557.0571,96.017
3558.0215,96.1154
3558.9856,96.2041
3559.9500,96.2755
3560.9141,96.3238
3561.8784,96.3508
3562.8425,96.3671
3563.8069,96.3906
3564.7710,96.4507
3565.7354,96.5869
3566.6995,96.8156
3567.6638,97.0873
3568.6279,97.3191
3569.5923,97.4724
3570.5564,97.5649
3571.5208,97.6302
3572.4849,97.6889
3573.4492,97.7453
3574.4133,97.7981
3575.3777,97.8502
3576.3418,97.9096
3577.3062,97.9837
3578.2703,98.071
3579.2346,98.1601
3580.1987,98.2354
3581.1631,98.2878
3582.1272,98.3193
3583.0916,98.3395
3584.0557,98.358
3585.0200,98.3835
3585.9841,98.4301
3586.9485,98.5079
3587.9126,98.5957
3588.8770,98.65
3589.8411,98.651
3590.8054,98.6164
3591.7695,98.5763
3592.7339,98.5515
3593.6980,98.5498
3594.6624,98.5679
3595.6265,98.5937
3596.5908,98.6159
3597.5549,98.6341
3598.5193,98.6598
3599.4834,98.7053
3600.4478,98.7721
3601.4119,98.8482
3602.3762,98.9186
3603.3403,98.9773
3604.3047,99.0281
3605.2688,99.0778
3606.2332,99.133
3607.1973,99.1976
3608.1616,99.2674
3609.1257,99.3269
3610.0901,99.3578
3611.0542,99.353
3612.0186,99.3197
3612.9829,99.2747
3613.9470,99.2368
3614.9114,99.2204
3615.8755,99.2333
3616.8398,99.2744
3617.8040,99.3401
3618.7683,99.4149
3619.7324,99.465
3620.6968,99.4551
3621.6609,99.3827
3622.6252,99.2864
3623.5894,99.2163
3624.5537,99.2024
3625.5178,99.24
3626.4822,99.3018
3627.4463,99.37
3628.4106,99.4471
3629.3748,99.5104
3630.3391,99.5124
3631.3032,99.4523
3632.2676,99.3771
3633.2317,99.3298
3634.1960,99.3219
3635.1602,99.3386
3636.1245,99.3564
3637.0886,99.3591
3638.0530,99.3424
3639.0171,99.3088
3639.9814,99.2611
3640.9456,99.2021
3641.9099,99.1375
3642.8740,99.0775
3643.8384,99.0295
3644.8025,98.9849
3645.7668,98.911
3646.7310,98.7786
3647.6953,98.6398
3648.6594,98.6371
3649.6238,98.7854
3650.5879,98.9132
3651.5522,98.9223
3652.5164,98.8504
3653.4807,98.7595
3654.4448,98.6766
3655.4092,98.5995
3656.3733,98.5195
3657.3376,98.4353
3658.3018,98.3555
3659.2661,98.2953
3660.2302,98.2668
3661.1946,98.2681
3662.1587,98.2839
3663.1230,98.2982
3664.0872,98.3075
3665.0515,98.3185
3666.0156,98.3338
3666.9800,98.3414
3667.9441,98.3249
3668.9084,98.2874
3669.8726,98.2474
3670.8369,98.2117
3671.8010,98.1749
3672.7654,98.1357
3673.7295,98.106
3674.6938,98.1209
3675.6580,98.216
3676.6223,98.3631
3677.5864,98.487
3678.5508,98.552
3679.5149,98.5715
3680.4792,98.5647
3681.4434,98.5394
3682.4077,98.502
3683.3718,98.4681
3684.3362,98.4555
3685.3003,98.4665
3686.2646,98.4773
3687.2288,98.456
3688.1931,98.4085
3689.1572,98.3919
3690.1216,98.441
3691.0857,98.5252
3692.0500,98.6068
3693.0142,98.6779
3693.9785,98.7452
3694.9426,98.8147
3695.9070,98.8895
3696.8711,98.9736
3697.8354,99.0701
3698.7996,99.179
3699.7639,99.295
3700.7280,99.4084
3701.6924,99.5064
3702.6565,99.5752
3703.6208,99.6098
3704.5850,99.6203
3705.5493,99.624
3706.5134,99.6305
3707.4778,99.6364
3708.4419,99.64
3709.4063,99.6723
3710.3704,99.7952
3711.3347,100.018
3712.2988,100.244
3713.2632,100.37
3714.2273,100.382
3715.1917,100.323
3716.1558,100.239
3717.1201,100.155
3718.0842,100.075
3719.0486,99.9939
3720.0127,99.911
3720.9771,99.833
3721.9412,99.7832
3722.9055,99.7566
3723.8696,99.7619
3724.8340,99.7971
3725.7981,99.8476
3726.7625,99.8962
3727.7266,99.9365
3728.6909,99.9732
3729.6550,100.01
3730.6194,100.039
3731.5835,100.042
3732.5479,100.014
3733.5120,99.9915
3734.4763,100.035
3735.4404,100.148
3736.4048,100.251
3737.3689,100.284
3738.3333,100.277
3739.2974,100.307
3740.2617,100.427
3741.2258,100.634
3742.1902,100.859
3743.1543,100.996
3744.1187,100.972
3745.0828,100.796
3746.0471,100.549
3747.0112,100.321
3747.9756,100.17
3748.9397,100.121
3749.9041,100.185
3750.8682,100.336
3751.8325,100.469
3752.7966,100.49
3753.7610,100.411
3754.7251,100.304
3755.6895,100.222
3756.6536,100.185
3757.6179,100.191
3758.5820,100.229
3759.5464,100.279
3760.5105,100.317
3761.4749,100.336
3762.4390,100.341
3763.4033,100.341
3764.3674,100.341
3765.3318,100.341
3766.2959,100.34
3767.2603,100.342
3768.2244,100.351
3769.1887,100.372
3770.1528,100.402
3771.1172,100.425
3772.0813,100.429
3773.0457,100.414
3774.0098,100.392
3774.9741,100.375
3775.9382,100.365
3776.9026,100.36
3777.8667,100.357
3778.8311,100.353
3779.7952,100.34
3780.7595,100.309
3781.7236,100.263
3782.6880,100.219
3783.6521,100.195
3784.6165,100.204
3785.5806,100.243
3786.5449,100.298
3787.5090,100.351
3788.4734,100.391
3789.4375,100.417
3790.4019,100.433
3791.3660,100.44
3792.3303,100.43
3793.2944,100.391
3794.2588,100.319
3795.2229,100.228
3796.1873,100.145
3797.1514,100.092
3798.1157,100.072
3799.0798,100.073
3800.0442,100.077
3801.0083,100.083
3801.9727,100.092
3802.9368,100.106
3803.9011,100.133
3804.8652,100.187
3805.8296,100.265
3806.7937,100.344
3807.7581,100.388
3808.7222,100.375
3809.6865,100.326
3810.6506,100.285
3811.6150,100.285
3812.5791,100.32
3813.5435,100.347
3814.5076,100.324
3815.4719,100.242
3816.4360,100.128
3817.4004,100.023
3818.3645,99.9556
3819.3289,99.9441
3820.2930,99.9844
3821.2573,100.042
3822.2214,100.065
3823.1858,100.035
3824.1499,99.9769
3825.1143,99.9345
3826.0784,99.9349
3827.0427,99.9783
3828.0068,100.043
3828.9712,100.101
3829.9353,100.132
3830.8997,100.133
3831.8638,100.113
3832.8281,100.091
3833.7922,100.077
3834.7566,100.067
3835.7207,100.046
3836.6851,100.002
3837.6492,99.9468
3838.6135,99.9053
3839.5776,99.8973
3840.5420,99.9266
3841.5061,99.987
3842.4705,100.063
3843.4346,100.129
3844.3989,100.155
3845.3630,100.129
3846.3274,100.07
3847.2915,100.021
3848.2559,100.029
3849.2200,100.117
3850.1843,100.267
3851.1484,100.425
3852.1128,100.554
3853.0769,100.656
3854.0413,100.687
3855.0054,100.581
3855.9697,100.379
3856.9338,100.187
3857.8982,100.074
3858.8623,100.048
3859.8267,100.069
3860.7908,100.083
3861.7551,100.059
3862.7192,100.009
3863.6836,99.9757
3864.6477,99.9855
3865.6121,100.033
3866.5762,100.093
3867.5405,100.139
3868.5046,100.152
3869.4690,100.133
3870.4331,100.1
3871.3975,100.074
3872.3616,100.06
3873.3259,100.053
3874.2900,100.051
3875.2544,100.058
3876.2185,100.078
3877.1829,100.107
3878.1470,100.132
3879.1113,100.142
3880.0754,100.139
3881.0398,100.136
3882.0039,100.149
3882.9683,100.183
3883.9324,100.232
3884.8967,100.277
3885.8608,100.297
3886.8252,100.283
3887.7893,100.24
3888.7537,100.187
3889.7178,100.137
3890.6821,100.101
3891.6462,100.085
3892.6106,100.083
3893.5747,100.083
3894.5391,100.085
3895.5032,100.093
3896.4675,100.108
3897.4316,100.116
3898.3960,100.107
3899.3601,100.083
3900.3245,100.059
3901.2886,100.048
3902.2529,100.053
3903.2170,100.072
3904.1814,100.096
3905.1455,100.115
3906.1099,100.121
3907.0740,100.122
3908.0383,100.125
3909.0024,100.135
3909.9668,100.147
3910.9309,100.158
3911.8953,100.163
3912.8594,100.164
3913.8237,100.163
3914.7878,100.161
3915.7522,100.162
3916.7163,100.169
3917.6807,100.178
3918.6448,100.18
3919.6091,100.165
3920.5732,100.134
3921.5376,100.095
3922.5017,100.063
3923.4661,100.043
3924.4302,100.034
3925.3945,100.027
3926.3586,100.01
3927.3230,99.9827
3928.2871,99.9518
3929.2515,99.9306
3930.2156,99.9328
3931.1799,99.966
3932.1440,100.023
3933.1084,100.085
3934.0725,100.131
3935.0369,100.155
3936.0010,100.16
3936.9653,100.152
3937.9294,100.134
3938.8938,100.106
3939.8579,100.069
3940.8223,100.029
3941.7864,99.9989
3942.7507,99.9881
3943.7148,99.9977
3944.6792,100.019
3945.6433,100.039
3946.6077,100.049
3947.5718,100.044
3948.5361,100.029
3949.5002,100.014
3950.4646,100.007
3951.4287,100.009
3952.3931,100.019
3953.3572,100.031
3954.3215,100.043
3955.2856,100.049
3956.2500,100.05
3957.2141,100.045
3958.1785,100.038
3959.1426,100.035
3960.1069,100.041
3961.0710,100.056
3962.0354,100.079
3962.9995,100.103
3963.9639,100.118
3964.9280,100.12
3965.8923,100.108
3966.8564,100.086
3967.8208,100.059
3968.7849,100.033
3969.7493,100.012
3970.7134,99.9983
3971.6777,99.9936
3972.6418,99.9988
3973.6062,100.013
3974.5703,100.035
3975.5347,100.058
3976.4988,100.079
3977.4631,100.094
3978.4272,100.102
3979.3916,100.102
3980.3557,100.094
3981.3201,100.076
3982.2842,100.05
3983.2485,100.021
3984.2126,99.9957
3985.1770,99.981
3986.1411,99.979
3987.1055,99.9866
3988.0696,99.9961
3989.0339,99.9994
3989.9980,99.9918
3990.9624,99.975
3991.9265,99.9562
3992.8909,99.9438
3993.8550,99.9427
3994.8193,99.952
3995.7834,99.9652
3996.7478,99.9747
3997.7119,99.9754
3998.6763,99.0021
3999.6404,97.5137
4000.6047,96.8455

##### Extended Information
[Comments]
Sample name
Comment
User
Division
Company,HANKYONG

[Detailed Information]
Creation date,4/24/2024 10:49 AM

Data array type,Linear data array
Horizontal axis,Wavenumber [cm-1]
Vertical axis,%T
Start,649.893 cm-1
End,4000.6 cm-1
Data interval,0.964233 cm-1
Data points,3476    

[Measurement Information]
Model Name,FT/IR-4700typeA
Serial Number,D056761788

Accessory,ATR PRO ONE
Accessory S/N,C174761809
Incident angle,45 deg

Measurement Date,4/24/2024 10:48 AM

Light Source,Standard
Detector,TGS
Accumulation,32
Resolution,4 cm-1
Zero Filling,On
Apodization,Cosine
Gain,Auto (4)
Aperture,Auto (7.1 mm)
Scanning Speed,Auto (2 mm/sec)
Filter,Auto (30000 Hz)

