TITLE,
DATA TYPE,INFRARED SPECTRUM
ORIGIN,JASCO
OWNER,
DATE,24/04/24
TIME,11:55:09
SPECTROMETER/DATA SYSTEM,
LOCALE,1033
RESOLUTION,
DELTAX,0.964233
XUNITS,1/CM
YUNITS,TRANSMITTANCE
FIRSTX,  649.8934
LASTX, 4000.6047
NPOINTS,    3476
FIRSTY,    97.43558
MAXY,   101.34112
MINY,    58.58528
XYDATA
649.8934,97.4356
650.8576,97.4921
651.8218,97.5817
652.7861,97.6912
653.7503,97.8038
654.7145,97.9083
655.6788,97.9995
656.6430,98.0751
657.6072,98.1352
658.5715,98.1338
659.5357,98.1305
660.4999,98.1534
661.4642,98.2035
662.4284,98.2473
663.3926,98.2173
664.3569,98.0202
665.3211,97.5425
666.2853,96.6825
667.2496,95.4899
668.2138,94.384
669.1780,93.9413
670.1423,94.201
671.1065,94.7225
672.0707,95.1465
673.0350,95.3368
673.9992,95.2893
674.9634,95.0687
675.9277,94.7751
676.8919,94.503
677.8561,94.3011
678.8204,94.1671
679.7846,94.0772
680.7488,94.0134
681.7131,93.9703
682.6773,93.945
683.6415,93.9302
684.6058,93.9158
685.5700,93.8963
686.5342,93.8735
687.4985,93.8519
688.4627,93.8318
689.4269,93.806
690.3912,93.764
691.3554,93.7059
692.3196,93.6574
693.2839,93.6658
694.2481,93.7603
695.2123,93.921
696.1766,94.0996
697.1408,94.2535
698.1050,94.3544
699.0693,94.3877
700.0335,94.352
700.9977,94.2584
701.9620,94.1263
702.9262,93.977
703.8904,93.8283
704.8547,93.6889
705.8189,93.5566
706.7831,93.4193
707.7474,93.2619
708.7116,93.0726
709.6758,92.8486
710.6401,92.5945
711.6043,92.3175
712.5685,92.0201
713.5328,91.6959
714.4970,91.3323
715.4612,91.0144
716.4255,90.5482
717.3897,90.0644
718.3539,89.611
719.3182,89.2407
720.2824,88.985
721.2466,88.8341
722.2109,88.7394
723.1751,88.639
724.1393,88.4868
725.1036,88.2673
726.0678,87.9928
727.0320,87.6899
727.9963,87.3846
728.9605,87.0916
729.9247,86.8137
730.8890,86.5464
731.8532,86.2831
732.8174,86.0146
733.7817,85.7269
734.7459,85.3985
735.7101,85.0034
736.6744,84.5181
737.6386,83.9314
738.6028,83.2511
739.5671,82.5053
740.5313,81.7377
741.4955,80.9968
742.4598,80.325
743.4240,79.7505
744.3882,79.2848
745.3525,78.9268
746.3167,78.6691
747.2809,78.503
748.2452,78.4197
749.2094,78.4076
750.1736,78.4501
751.1379,78.5256
752.1021,78.613
753.0663,78.6972
754.0306,78.7726
754.9948,78.8405
755.9590,78.9024
756.9233,78.9526
757.8875,78.9759
758.8517,78.9521
759.8160,78.8648
760.7802,78.7108
761.7444,78.5023
762.7087,78.2627
763.6729,78.0163
764.6371,77.78
765.6014,77.5599
766.5656,77.3566
767.5298,77.1733
768.4941,77.0214
769.4583,76.9187
770.4225,76.8797
771.3868,76.9044
772.3510,76.9718
773.3152,77.0434
774.2795,77.076
775.2437,77.0368
776.2079,76.9137
777.1722,76.7151
778.1364,76.4618
779.1006,76.176
780.0649,75.8742
781.0291,75.5662
781.9933,75.2584
782.9576,74.9568
783.9218,74.6674
784.8860,74.3946
785.8503,74.1389
786.8145,73.8972
787.7787,73.6638
788.7430,73.4319
789.7072,73.1945
790.6714,72.9445
791.6357,72.6766
792.5999,72.3893
793.5641,72.0864
794.5284,71.7752
795.4926,71.4621
796.4568,71.1481
797.4211,70.8283
798.3853,70.4955
799.3495,70.1463
800.3138,69.7844
801.2780,69.4205
802.2422,69.0665
803.2065,68.7318
804.1707,68.4206
805.1349,68.1339
806.0992,67.8721
807.0634,67.6376
808.0276,67.4341
808.9919,67.2658
809.9561,67.1355
810.9203,67.045
811.8846,66.9943
812.8488,66.9818
813.8130,67.0034
814.7773,67.0513
815.7415,67.1144
816.7057,67.1797
817.6700,67.2348
818.6342,67.2707
819.5984,67.2835
820.5627,67.2752
821.5269,67.2512
822.4911,67.2179
823.4554,67.1789
824.4196,67.1335
825.3839,67.0776
826.3481,67.0065
827.3123,66.9182
828.2766,66.8152
829.2408,66.7035
830.2050,66.5897
831.1693,66.478
832.1335,66.3692
833.0977,66.2608
834.0620,66.1492
835.0262,66.0309
835.9904,65.9034
836.9547,65.7649
837.9189,65.6147
838.8831,65.4532
839.8474,65.2822
840.8116,65.1054
841.7758,64.9261
842.7401,64.7463
843.7043,64.5656
844.6685,64.3813
845.6328,64.1909
846.5970,63.9942
847.5612,63.7949
848.5255,63.5999
849.4897,63.4178
850.4539,63.2564
851.4182,63.121
852.3824,63.0134
853.3466,62.9319
854.3109,62.8708
855.2751,62.8218
856.2393,62.7749
857.2036,62.7222
858.1678,62.6607
859.1320,62.5939
860.0963,62.5307
861.0605,62.4803
862.0247,62.4482
862.9890,62.4335
863.9532,62.4295
864.9174,62.4283
865.8817,62.4237
866.8459,62.4136
867.8101,62.3989
868.7744,62.382
869.7386,62.3652
870.7028,62.3489
871.6671,62.3311
872.6313,62.3058
873.5955,62.2635
874.5598,62.1939
875.5240,62.0909
876.4882,61.9579
877.4525,61.8097
878.4167,61.6685
879.3809,61.5565
880.3452,61.4879
881.3094,61.4649
882.2736,61.4799
883.2379,61.521
884.2021,61.5789
885.1663,61.6504
886.1306,61.7395
887.0948,61.855
888.0590,62.0076
889.0233,62.2066
889.9875,62.4578
890.9517,62.7629
891.9160,63.1213
892.8802,63.5321
893.8444,63.9958
894.8087,64.5137
895.7729,65.085
896.7371,65.7041
897.7014,66.36
898.6656,67.0385
899.6298,67.7252
900.5941,68.4081
901.5583,69.0769
902.5225,69.7224
903.4868,70.3349
904.4510,70.906
905.4152,71.43
906.3795,71.9045
907.3437,72.3298
908.3079,72.7062
909.2722,73.0338
910.2364,73.3145
911.2006,73.5536
912.1649,73.761
913.1291,73.9488
914.0933,74.1275
915.0576,74.3031
916.0218,74.4773
916.9860,74.6502
917.9503,74.8231
918.9145,74.9987
919.8787,75.1805
920.8430,75.3698
921.8072,75.5651
922.7714,75.7623
923.7357,75.9555
924.6999,76.1392
925.6641,76.3094
926.6284,76.4657
927.5926,76.6144
928.5568,76.7718
929.5211,76.966
930.4853,77.2372
931.4495,77.6336
932.4138,78.2032
933.3780,78.9827
934.3422,79.9853
935.3065,81.1926
936.2707,82.5543
937.2349,83.9982
938.1992,85.4459
939.1634,86.8312
940.1276,88.1117
941.0919,89.271
942.0561,90.311
943.0203,91.2413
943.9846,92.0692
944.9488,92.7971
945.9130,93.4246
946.8773,93.9541
947.8415,94.3938
948.8057,94.7581
949.7700,95.0644
950.7342,95.329
951.6984,95.5643
952.6627,95.7773
953.6269,95.9711
954.5911,96.1464
955.5554,96.3037
956.5196,96.4444
957.4838,96.5701
958.4481,96.6825
959.4123,96.782
960.3765,96.8681
961.3408,96.9408
962.3050,97.0021
963.2692,97.0568
964.2335,97.1119
965.1977,97.1747
966.1619,97.2507
967.1262,97.3431
968.0904,97.4529
969.0546,97.5799
970.0189,97.7235
970.9831,97.8818
971.9473,98.0517
972.9116,98.2289
973.8758,98.4088
974.8400,98.5881
975.8043,98.7641
976.7685,98.9343
977.7327,99.0951
978.6970,99.2416
979.6612,99.3698
980.6254,99.4779
981.5897,99.5675
982.5539,99.6415
983.5181,99.7025
984.4824,99.7512
985.4466,99.7875
986.4108,99.8135
987.3751,99.8349
988.3393,99.8605
989.3035,99.8993
990.2678,99.9572
991.2320,100.035
992.1962,100.129
993.1605,100.231
994.1247,100.336
995.0889,100.437
996.0532,100.532
997.0174,100.623
997.9816,100.713
998.9459,100.804
999.9101,100.896
1000.8743,100.98
1001.8386,101.045
1002.8028,101.077
1003.7670,101.064
1004.7313,100.998
1005.6955,100.876
1006.6597,100.699
1007.6240,100.471
1008.5882,100.193
1009.5524,99.8681
1010.5167,99.4957
1011.4809,99.0754
1012.4451,98.6082
1013.4094,98.0975
1014.3736,97.5494
1015.3378,96.9707
1016.3021,96.3675
1017.2663,95.7447
1018.2305,95.1051
1019.1948,94.4486
1020.1590,93.7686
1021.1232,93.0504
1022.0875,92.2726
1023.0517,91.417
1024.0160,90.4808
1024.9802,89.4866
1025.9445,88.4799
1026.9087,87.5134
1027.8729,86.6267
1028.8372,85.831
1029.8014,85.1093
1030.7656,84.4305
1031.7299,83.7693
1032.6941,83.1196
1033.6583,82.4952
1034.6226,81.9209
1035.5868,81.4197
1036.5510,81.0038
1037.5153,80.6714
1038.4795,80.4087
1039.4437,80.194
1040.4080,80.0043
1041.3722,79.8202
1042.3364,79.6317
1043.3007,79.4392
1044.2649,79.2515
1045.2291,79.0809
1046.1934,78.9381
1047.1576,78.8313
1048.1218,78.7678
1049.0861,78.756
1050.0503,78.8039
1051.0145,78.9137
1051.9788,79.0768
1052.9430,79.274
1053.9072,79.483
1054.8715,79.6896
1055.8357,79.8938
1056.7999,80.1051
1057.7642,80.3264
1058.7284,80.5371
1059.6926,80.6871
1060.6569,80.7095
1061.6211,80.5493
1062.5853,80.192
1063.5496,79.6754
1064.5138,79.0757
1065.4780,78.4721
1066.4423,77.9107
1067.4065,77.3853
1068.3707,76.8467
1069.3350,76.2323
1070.2992,75.4969
1071.2634,74.6292
1072.2277,73.6465
1073.1919,72.5776
1074.1561,71.4461
1075.1204,70.2661
1076.0846,69.0485
1077.0488,67.8101
1078.0131,66.5766
1078.9773,65.3776
1079.9415,64.2375
1080.9058,63.17
1081.8700,62.1794
1082.8342,61.2678
1083.7985,60.4437
1084.7627,59.7275
1085.7269,59.1523
1086.6912,58.7586
1087.6554,58.5853
1088.6196,58.6574
1089.5839,58.9755
1090.5481,59.5116
1091.5123,60.2154
1092.4766,61.03
1093.4408,61.9098
1094.4050,62.8332
1095.3693,63.8023
1096.3335,64.8321
1097.2977,65.9354
1098.2620,67.1106
1099.2262,68.3403
1100.1904,69.5963
1101.1547,70.8494
1102.1189,72.0766
1103.0831,73.2629
1104.0474,74.4007
1105.0116,75.4862
1105.9758,76.5176
1106.9401,77.495
1107.9043,78.4218
1108.8685,79.3068
1109.8328,80.1652
1110.7970,81.017
1111.7612,81.8834
1112.7255,82.7812
1113.6897,83.7188
1114.6539,84.6939
1115.6182,85.6957
1116.5824,86.7081
1117.5466,87.7143
1118.5109,88.7002
1119.4751,89.6562
1120.4393,90.5773
1121.4036,91.4633
1122.3678,92.3167
1123.3320,93.1406
1124.2963,93.9362
1125.2605,94.701
1126.2247,95.4284
1127.1890,96.1101
1128.1532,96.7381
1129.1174,97.306
1130.0817,97.809
1131.0459,98.2432
1132.0101,98.6054
1132.9744,98.8938
1133.9386,99.1088
1134.9028,99.2536
1135.8671,99.331
1136.8313,99.3418
1137.7955,99.2828
1138.7598,99.1494
1139.7240,98.94
1140.6882,98.6593
1141.6525,98.32
1142.6167,97.9454
1143.5809,97.5572
1144.5452,97.1737
1145.5094,96.8085
1146.4736,96.4707
1147.4379,96.1671
1148.4021,95.9027
1149.3663,95.6797
1150.3306,95.4958
1151.2948,95.3444
1152.2590,95.2154
1153.2233,95.0972
1154.1875,94.9788
1155.1517,94.851
1156.1160,94.7061
1157.0802,94.5383
1158.0444,94.3431
1159.0087,94.1172
1159.9729,93.8586
1160.9371,93.5661
1161.9014,93.2405
1162.8656,92.8842
1163.8298,92.5025
1164.7941,92.1025
1165.7583,91.6913
1166.7225,91.2751
1167.6868,90.857
1168.6510,90.4383
1169.6152,90.0186
1170.5795,89.5985
1171.5437,89.1798
1172.5079,88.7657
1173.4722,88.3594
1174.4364,87.9625
1175.4006,87.574
1176.3649,87.1903
1177.3291,86.8071
1178.2933,86.4201
1179.2576,86.0273
1180.2218,85.6287
1181.1860,85.2259
1182.1503,84.8211
1183.1145,84.4174
1184.0787,84.0185
1185.0430,83.6287
1186.0072,83.2528
1186.9714,82.8949
1187.9357,82.5578
1188.8999,82.2424
1189.8641,81.948
1190.8284,81.6734
1191.7926,81.4174
1192.7568,81.1793
1193.7211,80.9594
1194.6853,80.759
1195.6495,80.5804
1196.6138,80.4251
1197.5780,80.2928
1198.5422,80.1798
1199.5065,80.1353
1200.4707,80.0342
1201.4349,79.9329
1202.3992,79.8298
1203.3634,79.7262
1204.3276,79.6246
1205.2919,79.5264
1206.2561,79.4307
1207.2203,79.3352
1208.1846,79.2378
1209.1488,79.138
1210.1130,79.0374
1211.0773,78.938
1212.0415,78.841
1213.0057,78.7446
1213.9700,78.6452
1214.9342,78.5383
1215.8984,78.4208
1216.8627,78.2929
1217.8269,78.1573
1218.7911,78.017
1219.7554,77.8724
1220.7196,77.7214
1221.6838,77.5594
1222.6481,77.3826
1223.6123,77.1893
1224.5765,76.9803
1225.5408,76.7569
1226.5050,76.5164
1227.4692,76.2492
1228.4335,75.9379
1229.3977,75.5631
1230.3619,75.1138
1231.3262,74.6005
1232.2904,74.0645
1233.2546,73.5774
1234.2189,73.2288
1235.1831,73.1037
1236.1473,73.2616
1237.1116,73.7225
1238.0758,74.4681
1239.0400,75.4506
1240.0043,76.6049
1240.9685,77.8551
1241.9327,79.1157
1242.8970,80.2954
1243.8612,81.3084
1244.8254,82.0931
1245.7897,82.6288
1246.7539,82.9385
1247.7181,83.076
1248.6824,83.1041
1249.6466,83.0744
1250.6108,83.0179
1251.5751,82.9477
1252.5393,82.8666
1253.5035,82.7753
1254.4678,82.6761
1255.4320,82.5735
1256.3962,82.4745
1257.3605,82.388
1258.3247,82.3244
1259.2889,82.293
1260.2532,82.298
1261.2174,82.3352
1262.1816,82.3923
1263.1459,82.453
1264.1101,82.5011
1265.0743,82.5234
1266.0386,82.5105
1267.0028,82.4563
1267.9670,82.3584
1268.9313,82.2185
1269.8955,82.0437
1270.8597,81.846
1271.8240,81.6407
1272.7882,81.4439
1273.7524,81.2688
1274.7167,81.1249
1275.6809,81.0171
1276.6451,80.9465
1277.6094,80.9109
1278.5736,80.9061
1279.5378,80.9263
1280.5021,80.9657
1281.4663,81.0197
1282.4305,81.0865
1283.3948,81.1677
1284.3590,81.2684
1285.3232,81.3965
1286.2875,81.5614
1287.2517,81.7713
1288.2159,82.0304
1289.1802,82.3363
1290.1444,82.6797
1291.1086,83.0467
1292.0729,83.4226
1293.0371,83.7941
1294.0013,84.1512
1294.9656,84.486
1295.9298,84.7928
1296.8940,85.0673
1297.8583,85.3069
1298.8225,85.5116
1299.7867,85.6838
1300.7510,85.8284
1301.7152,85.9516
1302.6794,86.0603
1303.6437,86.1617
1304.6079,86.2613
1305.5721,86.3622
1306.5364,86.4641
1307.5006,86.5649
1308.4648,86.662
1309.4291,86.7556
1310.3933,86.8491
1311.3575,86.9477
1312.3218,87.0546
1313.2860,87.1683
1314.2502,87.2838
1315.2145,87.397
1316.1787,87.5087
1317.1429,87.6261
1318.1072,87.7578
1319.0714,87.9071
1320.0356,88.0677
1320.9999,88.2262
1321.9641,88.3702
1322.9283,88.4936
1323.8926,88.5981
1324.8568,88.6896
1325.8210,88.7735
1326.7853,88.8529
1327.7495,88.9282
1328.7137,88.9994
1329.6780,89.0669
1330.6422,89.1305
1331.6064,89.1862
1332.5707,89.2248
1333.5349,89.2334
1334.4991,89.2002
1335.4634,89.1216
1336.4276,89.0093
1337.3918,88.8957
1338.3561,88.8276
1339.3203,88.8395
1340.2845,88.9227
1341.2488,89.0287
1342.2130,89.1053
1343.1772,89.1242
1344.1415,89.0824
1345.1057,88.991
1346.0699,88.8669
1347.0342,88.7277
1347.9984,88.5869
1348.9626,88.4509
1349.9269,88.3182
1350.8911,88.1838
1351.8553,88.0449
1352.8196,87.9042
1353.7838,87.7703
1354.7480,87.6521
1355.7123,87.553
1356.6765,87.4668
1357.6407,87.3821
1358.6050,87.2895
1359.5692,87.1892
1360.5334,87.0983
1361.4977,87.0487
1362.4619,87.065
1363.4261,87.1357
1364.3904,87.2197
1365.3546,87.2824
1366.3188,87.3134
1367.2831,87.3181
1368.2473,87.3024
1369.2115,87.2655
1370.1758,87.1998
1371.1400,87.0973
1372.1042,86.9584
1373.0685,86.7996
1374.0327,86.6498
1374.9969,86.5315
1375.9612,86.4419
1376.9254,86.3632
1377.8896,86.2877
1378.8539,86.2297
1379.8181,86.2183
1380.7823,86.2799
1381.7466,86.4251
1382.7108,86.6504
1383.6750,86.9528
1384.6393,87.3387
1385.6035,87.8157
1386.5677,88.3614
1387.5320,88.8957
1388.4962,89.3096
1389.4604,89.5422
1390.4247,89.6125
1391.3889,89.5843
1392.3531,89.5253
1393.3174,89.4926
1394.2816,89.5308
1395.2458,89.6583
1396.2101,89.8499
1397.1743,90.0461
1398.1385,90.1878
1399.1028,90.2434
1400.0670,90.2129
1401.0313,90.1178
1401.9955,89.989
1402.9597,89.8582
1403.9240,89.7521
1404.8882,89.6865
1405.8524,89.658
1406.8167,89.6477
1407.7809,89.6387
1408.7451,89.6294
1409.7094,89.6286
1410.6736,89.6402
1411.6378,89.6549
1412.6021,89.6562
1413.5663,89.6351
1414.5305,89.5971
1415.4948,89.5529
1416.4590,89.5095
1417.4232,89.4732
1418.3875,89.4474
1419.3517,89.4065
1420.3159,89.2996
1421.2802,89.105
1422.2444,88.8491
1423.2086,88.5736
1424.1729,88.3062
1425.1371,88.0523
1426.1013,87.7989
1427.0656,87.5224
1428.0298,87.2008
1428.9940,86.8302
1429.9583,86.437
1430.9225,86.069
1431.8867,85.7678
1432.8510,85.5502
1433.8152,85.4053
1434.7794,85.305
1435.7437,85.2239
1436.7079,85.1441
1437.6721,85.0374
1438.6364,84.876
1439.6006,84.6685
1440.5648,84.4529
1441.5291,84.261
1442.4933,84.1012
1443.4575,83.9625
1444.4218,83.8286
1445.3860,83.6887
1446.3502,83.5412
1447.3145,83.3887
1448.2787,83.2283
1449.2429,83.0502
1450.2072,82.8509
1451.1714,82.6473
1452.1356,82.47
1453.0999,82.3355
1454.0641,82.2208
1455.0283,82.0724
1455.9926,81.8939
1456.9568,81.8296
1457.9210,81.9427
1458.8853,82.0419
1459.8495,82.0091
1460.8137,81.9105
1461.7780,81.8423
1462.7422,81.8563
1463.7064,81.9695
1464.6707,82.1771
1465.6349,82.44
1466.5991,82.7028
1467.5634,82.9521
1468.5276,83.2281
1469.4918,83.5852
1470.4561,84.0682
1471.4203,84.7239
1472.3845,85.5895
1473.3488,86.592
1474.3130,87.5104
1475.2772,88.172
1476.2415,88.58
1477.2057,88.8265
1478.1699,88.9982
1479.1342,89.1546
1480.0984,89.3353
1481.0626,89.5607
1482.0269,89.8264
1482.9911,90.1038
1483.9553,90.3559
1484.9196,90.5525
1485.8838,90.6765
1486.8480,90.7344
1487.8123,90.7839
1488.7765,90.929
1489.7407,91.2014
1490.7050,91.4843
1491.6692,91.657
1492.6334,91.707
1493.5977,91.6748
1494.5619,91.5792
1495.5261,91.4046
1496.4904,91.1393
1497.4546,90.8102
1498.4188,90.4545
1499.3831,90.0865
1500.3473,89.7316
1501.3115,89.4458
1502.2758,89.2788
1503.2400,89.2249
1504.2042,89.187
1505.1685,88.9867
1506.1327,88.5365
1507.0969,88.1069
1508.0612,87.9731
1509.0254,87.9427
1509.9896,87.8288
1510.9539,87.6548
1511.9181,87.4873
1512.8823,87.3645
1513.8466,87.3096
1514.8108,87.3523
1515.7750,87.5231
1516.7393,87.8264
1517.7035,88.2363
1518.6677,88.7301
1519.6320,89.3169
1520.5962,90.0114
1521.5604,90.7702
1522.5247,91.4928
1523.4889,92.1196
1524.4531,92.6894
1525.4174,93.2749
1526.3816,93.8903
1527.3458,94.4758
1528.3101,94.9646
1529.2743,95.3469
1530.2385,95.6702
1531.2028,96.0045
1532.1670,96.4042
1533.1312,96.8672
1534.0955,97.3213
1535.0597,97.6967
1536.0239,97.9948
1536.9882,98.2445
1537.9524,98.4127
1538.9166,98.3993
1539.8809,98.2244
1540.8451,98.2135
1541.8093,98.5592
1542.7736,99.0089
1543.7378,99.3571
1544.7020,99.5891
1545.6663,99.729
1546.6305,99.7891
1547.5947,99.7864
1548.5590,99.7488
1549.5232,99.701
1550.4874,99.6484
1551.4517,99.5795
1552.4159,99.4886
1553.3801,99.3981
1554.3444,99.3497
1555.3086,99.3654
1556.2728,99.4162
1557.2371,99.4734
1558.2013,99.6322
1559.1655,99.887
1560.1298,99.8676
1561.0940,99.4399
1562.0582,98.8492
1563.0225,98.3067
1563.9867,97.908
1564.9509,97.652
1565.9152,97.4842
1566.8794,97.3318
1567.8436,97.1385
1568.8079,96.892
1569.7721,96.6149
1570.7363,96.3343
1571.7006,96.0708
1572.6648,95.8297
1573.6290,95.5796
1574.5933,95.2567
1575.5575,94.8319
1576.5217,94.3699
1577.4860,93.9456
1578.4502,93.5543
1579.4144,93.1676
1580.3787,92.7791
1581.3429,92.3841
1582.3071,91.9698
1583.2714,91.5267
1584.2356,91.0571
1585.1998,90.5684
1586.1641,90.065
1587.1283,89.5477
1588.0925,89.019
1589.0568,88.485
1590.0210,87.9528
1590.9852,87.4267
1591.9495,86.9103
1592.9137,86.4137
1593.8779,85.9553
1594.8422,85.5559
1595.8064,85.2247
1596.7706,84.9534
1597.7349,84.7222
1598.6991,84.5128
1599.6633,84.3173
1600.6276,84.1396
1601.5918,83.9902
1602.5560,83.8778
1603.5203,83.802
1604.4845,83.7558
1605.4487,83.7343
1606.4130,83.7435
1607.3772,83.7991
1608.3414,83.9134
1609.3057,84.0769
1610.2699,84.2576
1611.2341,84.4276
1612.1984,84.5862
1613.1626,84.7536
1614.1268,84.9561
1615.0911,85.2246
1616.0553,85.5791
1617.0195,85.9657
1617.9838,86.2677
1618.9480,86.4413
1619.9122,86.556
1620.8765,86.7098
1621.8407,86.9615
1622.8049,87.3122
1623.7692,87.7119
1624.7334,88.0958
1625.6976,88.4391
1626.6619,88.7662
1627.6261,89.1062
1628.5903,89.4527
1629.5546,89.7764
1630.5188,90.0668
1631.4830,90.3442
1632.4473,90.6293
1633.4115,90.914
1634.3757,91.1865
1635.3400,91.4875
1636.3042,91.8465
1637.2684,92.1619
1638.2327,92.3387
1639.1969,92.4124
1640.1611,92.4676
1641.1254,92.5593
1642.0896,92.6986
1643.0538,92.8548
1644.0181,92.9601
1644.9823,92.9485
1645.9465,92.8432
1646.9108,92.7701
1647.8750,92.816
1648.8392,92.9834
1649.8035,93.2608
1650.7677,93.6008
1651.7319,93.8816
1652.6962,94.0048
1653.6604,93.9894
1654.6246,93.7901
1655.5889,93.3766
1656.5531,92.8982
1657.5173,92.5133
1658.4816,92.275
1659.4458,92.1434
1660.4100,92.0385
1661.3743,91.902
1662.3385,91.7309
1663.3027,91.5494
1664.2670,91.3733
1665.2312,91.2084
1666.1954,91.0445
1667.1597,90.8468
1668.1239,90.5823
1669.0881,90.2767
1670.0524,90.0166
1671.0166,89.8593
1671.9808,89.7901
1672.9451,89.7679
1673.9093,89.75
1674.8735,89.6843
1675.8378,89.52
1676.8020,89.2434
1677.7662,88.9036
1678.7305,88.5913
1679.6947,88.3827
1680.6589,88.2939
1681.6232,88.27
1682.5874,88.2309
1683.5516,88.152
1684.5159,88.0375
1685.4801,87.8305
1686.4443,87.5067
1687.4086,87.1352
1688.3728,86.8011
1689.3370,86.5518
1690.3013,86.3947
1691.2655,86.3085
1692.2297,86.2493
1693.1940,86.1553
1694.1582,85.9632
1695.1224,85.6472
1696.0867,85.2675
1697.0509,84.9722
1698.0151,84.8984
1698.9794,85.0263
1699.9436,85.1656
1700.9078,85.1319
1701.8721,84.9018
1702.8363,84.5903
1703.8005,84.3405
1704.7648,84.2476
1705.7290,84.3283
1706.6932,84.5253
1707.6575,84.7479
1708.6217,84.9359
1709.5859,85.0873
1710.5502,85.2334
1711.5144,85.4
1712.4786,85.5896
1713.4429,85.7904
1714.4071,86.0129
1715.3713,86.3439
1716.3356,86.9302
1717.2998,87.7636
1718.2640,88.5546
1719.2283,89.0595
1720.1925,89.3127
1721.1567,89.4818
1722.1210,89.7005
1723.0852,90.0157
1724.0494,90.4005
1725.0137,90.791
1725.9779,91.1295
1726.9421,91.395
1727.9064,91.606
1728.8706,91.8036
1729.8348,92.0286
1730.7991,92.3106
1731.7633,92.6715
1732.7275,93.1223
1733.6918,93.6076
1734.6560,93.9787
1735.6202,94.1354
1736.5845,94.1372
1737.5487,94.1154
1738.5129,94.1589
1739.4772,94.2805
1740.4414,94.4366
1741.4056,94.5689
1742.3699,94.6441
1743.3341,94.6706
1744.2983,94.6809
1745.2626,94.7061
1746.2268,94.7653
1747.1910,94.879
1748.1553,95.0834
1749.1195,95.41
1750.0837,95.8201
1751.0480,96.1945
1752.0122,96.4352
1752.9764,96.5415
1753.9407,96.5771
1754.9049,96.6066
1755.8691,96.6638
1756.8334,96.7522
1757.7976,96.8615
1758.7618,96.9835
1759.7261,97.1208
1760.6903,97.2793
1761.6545,97.4542
1762.6188,97.6248
1763.5830,97.7691
1764.5472,97.8833
1765.5115,97.9812
1766.4757,98.0763
1767.4399,98.1671
1768.4042,98.2388
1769.3684,98.2812
1770.3326,98.3132
1771.2969,98.3867
1772.2611,98.5388
1773.2253,98.7299
1774.1896,98.8795
1775.1538,98.9559
1776.1180,98.9917
1777.0823,99.0343
1778.0465,99.1086
1779.0107,99.2141
1779.9750,99.339
1780.9392,99.4737
1781.9034,99.6136
1782.8677,99.7528
1783.8319,99.8774
1784.7961,99.9674
1785.7604,100.011
1786.7246,100.015
1787.6888,100.007
1788.6531,100.006
1789.6173,100.013
1790.5815,100.016
1791.5458,100.018
1792.5100,100.028
1793.4742,100.032
1794.4385,100.009
1795.4027,99.9688
1796.3669,99.9436
1797.3312,99.9554
1798.2954,100.002
1799.2596,100.068
1800.2239,100.139
1801.1881,100.207
1802.1523,100.26
1803.1166,100.291
1804.0808,100.299
1805.0450,100.288
1806.0093,100.261
1806.9735,100.222
1807.9377,100.183
1808.9020,100.154
1809.8662,100.148
1810.8304,100.174
1811.7947,100.23
1812.7589,100.295
1813.7231,100.354
1814.6874,100.401
1815.6516,100.434
1816.6158,100.456
1817.5801,100.467
1818.5443,100.47
1819.5085,100.471
1820.4728,100.476
1821.4370,100.488
1822.4012,100.505
1823.3655,100.52
1824.3297,100.524
1825.2939,100.509
1826.2582,100.476
1827.2224,100.437
1828.1866,100.413
1829.1509,100.428
1830.1151,100.485
1831.0793,100.553
1832.0436,100.594
1833.0078,100.595
1833.9720,100.574
1834.9363,100.549
1835.9005,100.532
1836.8647,100.522
1837.8290,100.52
1838.7932,100.528
1839.7574,100.557
1840.7217,100.607
1841.6859,100.661
1842.6501,100.693
1843.6144,100.691
1844.5786,100.668
1845.5428,100.634
1846.5071,100.599
1847.4713,100.575
1848.4355,100.579
1849.3998,100.614
1850.3640,100.666
1851.3282,100.713
1852.2925,100.743
1853.2567,100.752
1854.2209,100.748
1855.1852,100.736
1856.1494,100.723
1857.1136,100.711
1858.0779,100.704
1859.0421,100.706
1860.0063,100.716
1860.9706,100.725
1861.9348,100.719
1862.8990,100.689
1863.8633,100.632
1864.8275,100.553
1865.7917,100.464
1866.7560,100.391
1867.7202,100.376
1868.6844,100.445
1869.6487,100.571
1870.6129,100.688
1871.5771,100.754
1872.5414,100.777
1873.5056,100.78
1874.4698,100.78
1875.4341,100.781
1876.3983,100.782
1877.3625,100.782
1878.3268,100.782
1879.2910,100.782
1880.2552,100.781
1881.2195,100.777
1882.1837,100.769
1883.1479,100.754
1884.1122,100.737
1885.0764,100.721
1886.0406,100.71
1887.0049,100.705
1887.9691,100.705
1888.9333,100.708
1889.8976,100.71
1890.8618,100.704
1891.8260,100.686
1892.7903,100.663
1893.7545,100.644
1894.7188,100.642
1895.6830,100.658
1896.6472,100.687
1897.6115,100.717
1898.5757,100.737
1899.5399,100.741
1900.5042,100.733
1901.4684,100.718
1902.4326,100.701
1903.3969,100.683
1904.3611,100.66
1905.3253,100.628
1906.2896,100.587
1907.2538,100.546
1908.2180,100.52
1909.1823,100.518
1910.1465,100.542
1911.1107,100.577
1912.0750,100.61
1913.0392,100.635
1914.0034,100.652
1914.9677,100.665
1915.9319,100.675
1916.8961,100.675
1917.8604,100.658
1918.8246,100.617
1919.7888,100.557
1920.7531,100.494
1921.7173,100.451
1922.6815,100.448
1923.6458,100.482
1924.6100,100.538
1925.5742,100.593
1926.5385,100.631
1927.5027,100.651
1928.4669,100.657
1929.4312,100.656
1930.3954,100.653
1931.3596,100.649
1932.3239,100.645
1933.2881,100.644
1934.2523,100.647
1935.2166,100.652
1936.1808,100.654
1937.1450,100.65
1938.1093,100.635
1939.0735,100.609
1940.0377,100.576
1941.0020,100.541
1941.9662,100.515
1942.9304,100.507
1943.8947,100.519
1944.8589,100.543
1945.8231,100.572
1946.7874,100.603
1947.7516,100.634
1948.7158,100.66
1949.6801,100.676
1950.6443,100.682
1951.6085,100.678
1952.5728,100.671
1953.5370,100.667
1954.5012,100.668
1955.4655,100.673
1956.4297,100.68
1957.3939,100.684
1958.3582,100.687
1959.3224,100.687
1960.2866,100.686
1961.2509,100.68
1962.2151,100.668
1963.1793,100.647
1964.1436,100.619
1965.1078,100.592
1966.0720,100.576
1967.0363,100.581
1968.0005,100.605
1968.9647,100.64
1969.9290,100.672
1970.8932,100.695
1971.8574,100.707
1972.8217,100.71
1973.7859,100.709
1974.7501,100.706
1975.7144,100.702
1976.6786,100.698
1977.6428,100.692
1978.6071,100.685
1979.5713,100.679
1980.5355,100.674
1981.4998,100.671
1982.4640,100.667
1983.4282,100.659
1984.3925,100.644
1985.3567,100.622
1986.3209,100.593
1987.2852,100.561
1988.2494,100.527
1989.2136,100.496
1990.1779,100.474
1991.1421,100.464
1992.1063,100.47
1993.0706,100.487
1994.0348,100.508
1994.9990,100.523
1995.9633,100.527
1996.9275,100.523
1997.8917,100.512
1998.8560,100.5
1999.8202,100.491
2000.7844,100.486
2001.7487,100.484
2002.7129,100.481
2003.6771,100.472
2004.6414,100.458
2005.6056,100.441
2006.5698,100.422
2007.5341,100.407
2008.4983,100.398
2009.4625,100.394
2010.4268,100.392
2011.3910,100.386
2012.3552,100.372
2013.3195,100.347
2014.2837,100.315
2015.2479,100.281
2016.2122,100.255
2017.1764,100.245
2018.1406,100.25
2019.1049,100.266
2020.0691,100.284
2021.0333,100.299
2021.9976,100.306
2022.9618,100.308
2023.9260,100.306
2024.8903,100.303
2025.8545,100.301
2026.8187,100.3
2027.7830,100.298
2028.7472,100.296
2029.7114,100.293
2030.6757,100.29
2031.6399,100.287
2032.6041,100.285
2033.5684,100.285
2034.5326,100.288
2035.4968,100.292
2036.4611,100.296
2037.4253,100.297
2038.3895,100.295
2039.3538,100.291
2040.3180,100.289
2041.2822,100.294
2042.2465,100.306
2043.2107,100.325
2044.1749,100.345
2045.1392,100.362
2046.1034,100.373
2047.0676,100.377
2048.0320,100.378
2048.9961,100.377
2049.9604,100.378
2050.9246,100.382
2051.8889,100.388
2052.8530,100.394
2053.8174,100.398
2054.7815,100.4
2055.7458,100.399
2056.7100,100.398
2057.6743,100.395
2058.6384,100.392
2059.6028,100.386
2060.5669,100.377
2061.5313,100.365
2062.4954,100.353
2063.4597,100.346
2064.4238,100.347
2065.3882,100.357
2066.3523,100.374
2067.3167,100.391
2068.2808,100.405
2069.2451,100.413
2070.2092,100.415
2071.1736,100.415
2072.1377,100.415
2073.1021,100.415
2074.0662,100.415
2075.0305,100.416
2075.9946,100.416
2076.9590,100.417
2077.9231,100.417
2078.8875,100.418
2079.8516,100.418
2080.8159,100.418
2081.7800,100.416
2082.7444,100.415
2083.7085,100.413
2084.6729,100.412
2085.6370,100.411
2086.6013,100.411
2087.5654,100.41
2088.5298,100.409
2089.4939,100.408
2090.4583,100.407
2091.4224,100.406
2092.3867,100.407
2093.3508,100.408
2094.3152,100.41
2095.2793,100.413
2096.2437,100.417
2097.2078,100.42
2098.1721,100.423
2099.1362,100.424
2100.1006,100.421
2101.0647,100.418
2102.0291,100.414
2102.9932,100.41
2103.9575,100.408
2104.9216,100.408
2105.8860,100.409
2106.8501,100.409
2107.8145,100.408
2108.7786,100.404
2109.7429,100.398
2110.7070,100.39
2111.6714,100.382
2112.6355,100.375
2113.5999,100.373
2114.5640,100.374
2115.5283,100.379
2116.4924,100.386
2117.4568,100.392
2118.4209,100.396
2119.3853,100.397
2120.3494,100.394
2121.3137,100.389
2122.2778,100.384
2123.2422,100.379
2124.2063,100.375
2125.1707,100.373
2126.1348,100.372
2127.0991,100.373
2128.0632,100.376
2129.0276,100.38
2129.9917,100.383
2130.9561,100.384
2131.9202,100.381
2132.8845,100.374
2133.8486,100.365
2134.8130,100.358
2135.7771,100.355
2136.7415,100.358
2137.7056,100.365
2138.6699,100.375
2139.6340,100.382
2140.5984,100.385
2141.5625,100.383
2142.5269,100.377
2143.4910,100.371
2144.4553,100.368
2145.4194,100.368
2146.3838,100.372
2147.3479,100.377
2148.3123,100.38
2149.2764,100.38
2150.2407,100.376
2151.2048,100.368
2152.1692,100.359
2153.1333,100.353
2154.0977,100.351
2155.0618,100.354
2156.0261,100.359
2156.9902,100.364
2157.9546,100.367
2158.9187,100.367
2159.8831,100.365
2160.8472,100.363
2161.8115,100.361
2162.7756,100.359
2163.7400,100.357
2164.7041,100.355
2165.6685,100.35
2166.6326,100.343
2167.5969,100.336
2168.5610,100.328
2169.5254,100.323
2170.4895,100.319
2171.4539,100.316
2172.4180,100.314
2173.3823,100.312
2174.3464,100.309
2175.3108,100.306
2176.2749,100.302
2177.2393,100.298
2178.2034,100.295
2179.1677,100.29
2180.1318,100.285
2181.0962,100.278
2182.0603,100.27
2183.0247,100.262
2183.9888,100.255
2184.9531,100.251
2185.9172,100.248
2186.8816,100.248
2187.8457,100.25
2188.8101,100.251
2189.7742,100.252
2190.7385,100.252
2191.7026,100.251
2192.6670,100.248
2193.6311,100.244
2194.5955,100.239
2195.5596,100.231
2196.5239,100.221
2197.4880,100.21
2198.4524,100.2
2199.4165,100.191
2200.3809,100.185
2201.3450,100.182
2202.3093,100.179
2203.2734,100.175
2204.2378,100.17
2205.2019,100.164
2206.1663,100.157
2207.1304,100.152
2208.0947,100.148
2209.0588,100.146
2210.0232,100.143
2210.9873,100.137
2211.9517,100.128
2212.9158,100.116
2213.8801,100.104
2214.8442,100.093
2215.8086,100.085
2216.7727,100.079
2217.7371,100.075
2218.7012,100.07
2219.6655,100.063
2220.6296,100.056
2221.5940,100.05
2222.5581,100.046
2223.5225,100.045
2224.4866,100.043
2225.4509,100.039
2226.4150,100.03
2227.3794,100.018
2228.3435,100.003
2229.3079,99.9889
2230.2720,99.9762
2231.2363,99.965
2232.2004,99.955
2233.1648,99.9456
2234.1289,99.9373
2235.0933,99.9306
2236.0574,99.9255
2237.0217,99.9207
2237.9858,99.9142
2238.9502,99.9044
2239.9143,99.8909
2240.8787,99.875
2241.8428,99.8589
2242.8071,99.8441
2243.7712,99.8309
2244.7356,99.8185
2245.6997,99.8055
2246.6641,99.7913
2247.6282,99.7759
2248.5925,99.7601
2249.5566,99.7443
2250.5210,99.7283
2251.4851,99.7111
2252.4495,99.6915
2253.4136,99.6692
2254.3779,99.6448
2255.3420,99.6199
2256.3064,99.5963
2257.2705,99.5752
2258.2349,99.5572
2259.1990,99.5415
2260.1633,99.5269
2261.1274,99.5122
2262.0918,99.4966
2263.0559,99.4806
2264.0203,99.4652
2264.9844,99.4521
2265.9487,99.4416
2266.9128,99.433
2267.8772,99.424
2268.8413,99.4125
2269.8057,99.3979
2270.7698,99.3818
2271.7341,99.367
2272.6982,99.3565
2273.6626,99.3518
2274.6267,99.3524
2275.5911,99.3568
2276.5552,99.3641
2277.5195,99.3742
2278.4836,99.3875
2279.4480,99.4036
2280.4121,99.42
2281.3765,99.432
2282.3406,99.4338
2283.3049,99.4205
2284.2690,99.3897
2285.2334,99.3428
2286.1975,99.2851
2287.1619,99.2236
2288.1260,99.1642
2289.0903,99.1096
2290.0544,99.0589
2291.0188,99.0093
2291.9829,98.9601
2292.9473,98.9137
2293.9114,98.875
2294.8757,98.8484
2295.8398,98.8357
2296.8042,98.8355
2297.7683,98.8464
2298.7327,98.8695
2299.6968,98.9091
2300.6611,98.969
2301.6252,99.0478
2302.5896,99.1352
2303.5537,99.2143
2304.5181,99.2676
2305.4822,99.2868
2306.4465,99.2791
2307.4106,99.267
2308.3750,99.2801
2309.3391,99.3412
2310.3035,99.4552
2311.2676,99.6057
2312.2319,99.7637
2313.1960,99.9035
2314.1604,100.015
2315.1245,100.109
2316.0889,100.206
2317.0530,100.323
2318.0173,100.463
2318.9814,100.606
2319.9458,100.705
2320.9099,100.709
2321.8743,100.575
2322.8384,100.303
2323.8027,99.9437
2324.7668,99.5841
2325.7312,99.3178
2326.6953,99.2064
2327.6597,99.2555
2328.6238,99.4098
2329.5881,99.5724
2330.5522,99.6454
2331.5166,99.5762
2332.4807,99.3803
2333.4451,99.1259
2334.4092,98.892
2335.3735,98.7283
2336.3376,98.6362
2337.3020,98.5754
2338.2661,98.4896
2339.2305,98.3403
2340.1946,98.1413
2341.1589,97.9811
2342.1230,98.0079
2343.0874,98.321
2344.0515,98.7942
2345.0159,99.1118
2345.9800,99.0565
2346.9443,98.7163
2347.9084,98.3559
2348.8728,98.1982
2349.8369,98.3171
2350.8013,98.6265
2351.7654,98.9336
2352.7297,99.0543
2353.6938,98.9418
2354.6582,98.6968
2355.6223,98.4223
2356.5867,98.1251
2357.5508,97.7895
2358.5151,97.4721
2359.4792,97.2738
2360.4436,97.2402
2361.4077,97.3334
2362.3721,97.5021
2363.3362,97.7413
2364.3005,98.0749
2365.2646,98.506
2366.2290,98.9979
2367.1931,99.4968
2368.1575,99.9604
2369.1216,100.366
2370.0859,100.705
2371.0500,100.975
2372.0144,101.174
2372.9785,101.298
2373.9429,101.341
2374.9070,101.293
2375.8713,101.151
2376.8354,100.924
2377.7998,100.635
2378.7639,100.317
2379.7283,100.009
2380.6924,99.742
2381.6567,99.5371
2382.6208,99.4013
2383.5852,99.3294
2384.5493,99.3077
2385.5137,99.3189
2386.4778,99.3462
2387.4421,99.377
2388.4063,99.4034
2389.3706,99.4219
2390.3347,99.4326
2391.2991,99.4373
2392.2632,99.4383
2393.2275,99.4384
2394.1917,99.4396
2395.1560,99.4434
2396.1201,99.4503
2397.0845,99.4601
2398.0486,99.4712
2399.0129,99.4817
2399.9771,99.4896
2400.9414,99.4932
2401.9055,99.4928
2402.8699,99.4897
2403.8340,99.4869
2404.7983,99.4871
2405.7625,99.4914
2406.7268,99.4984
2407.6909,99.5053
2408.6553,99.5092
2409.6194,99.5092
2410.5837,99.5069
2411.5479,99.5058
2412.5122,99.5089
2413.4763,99.5175
2414.4407,99.5298
2415.4048,99.5427
2416.3691,99.5536
2417.3333,99.5616
2418.2976,99.5672
2419.2617,99.572
2420.2261,99.5764
2421.1902,99.5803
2422.1545,99.5833
2423.1187,99.5855
2424.0830,99.5879
2425.0471,99.5918
2426.0115,99.5977
2426.9756,99.6046
2427.9399,99.6111
2428.9041,99.6164
2429.8684,99.6208
2430.8325,99.6256
2431.7969,99.632
2432.7610,99.64
2433.7253,99.6483
2434.6895,99.6551
2435.6538,99.6595
2436.6179,99.6623
2437.5823,99.6653
2438.5464,99.6702
2439.5107,99.6774
2440.4749,99.6858
2441.4392,99.6935
2442.4033,99.6993
2443.3677,99.7029
2444.3318,99.7053
2445.2961,99.7076
2446.2603,99.7105
2447.2246,99.7134
2448.1887,99.7154
2449.1531,99.7155
2450.1172,99.7142
2451.0815,99.713
2452.0457,99.7138
2453.0100,99.718
2453.9741,99.7257
2454.9385,99.735
2455.9026,99.7436
2456.8669,99.7493
2457.8311,99.751
2458.7954,99.7492
2459.7595,99.7454
2460.7239,99.7416
2461.6880,99.7394
2462.6523,99.7404
2463.6165,99.7453
2464.5808,99.7541
2465.5449,99.7653
2466.5093,99.7763
2467.4734,99.7841
2468.4377,99.7868
2469.4019,99.7845
2470.3662,99.7793
2471.3303,99.7745
2472.2947,99.7732
2473.2588,99.777
2474.2231,99.7857
2475.1873,99.7973
2476.1516,99.8098
2477.1157,99.821
2478.0801,99.8302
2479.0442,99.8373
2480.0085,99.8427
2480.9727,99.8472
2481.9370,99.8512
2482.9011,99.8549
2483.8655,99.8583
2484.8296,99.8613
2485.7939,99.8641
2486.7581,99.8671
2487.7224,99.8711
2488.6865,99.8764
2489.6509,99.8831
2490.6150,99.8898
2491.5793,99.8947
2492.5435,99.8963
2493.5078,99.8941
2494.4719,99.8897
2495.4363,99.8857
2496.4004,99.8848
2497.3647,99.888
2498.3289,99.8942
2499.2932,99.9007
2500.2573,99.9053
2501.2217,99.9071
2502.1858,99.9072
2503.1501,99.9074
2504.1143,99.9091
2505.0786,99.9125
2506.0427,99.916
2507.0071,99.9181
2507.9712,99.9173
2508.9355,99.9137
2509.8997,99.9079
2510.8640,99.9015
2511.8281,99.8959
2512.7925,99.8926
2513.7566,99.8929
2514.7209,99.8969
2515.6851,99.9035
2516.6494,99.9105
2517.6135,99.9153
2518.5779,99.9162
2519.5420,99.9134
2520.5063,99.9086
2521.4705,99.9044
2522.4348,99.9022
2523.3989,99.9019
2524.3633,99.902
2525.3274,99.9011
2526.2917,99.8985
2527.2559,99.8952
2528.2202,99.8925
2529.1843,99.8911
2530.1487,99.8905
2531.1128,99.8893
2532.0771,99.8865
2533.0413,99.8818
2534.0056,99.8764
2534.9697,99.8717
2535.9341,99.8688
2536.8982,99.8681
2537.8625,99.8693
2538.8267,99.8719
2539.7910,99.8754
2540.7551,99.8791
2541.7195,99.8827
2542.6836,99.8855
2543.6479,99.8873
2544.6121,99.888
2545.5764,99.8879
2546.5405,99.8869
2547.5049,99.8852
2548.4690,99.8834
2549.4333,99.8829
2550.3975,99.8853
2551.3618,99.8913
2552.3259,99.9
2553.2903,99.909
2554.2544,99.9154
2555.2188,99.9174
2556.1829,99.9156
2557.1472,99.9127
2558.1113,99.9116
2559.0757,99.914
2560.0398,99.9196
2561.0042,99.926
2561.9683,99.9305
2562.9326,99.9317
2563.8967,99.9297
2564.8611,99.9268
2565.8252,99.9256
2566.7896,99.9282
2567.7537,99.9345
2568.7180,99.9424
2569.6821,99.9488
2570.6465,99.951
2571.6106,99.9484
2572.5750,99.9427
2573.5391,99.937
2574.5034,99.934
2575.4675,99.9351
2576.4319,99.9395
2577.3960,99.9457
2578.3604,99.9521
2579.3245,99.9582
2580.2888,99.9643
2581.2529,99.9708
2582.2173,99.9779
2583.1814,99.985
2584.1458,99.9912
2585.1099,99.9955
2586.0742,99.9971
2587.0383,99.9961
2588.0027,99.9932
2588.9668,99.9903
2589.9312,99.9898
2590.8953,99.9932
2591.8596,100.001
2592.8237,100.01
2593.7881,100.018
2594.7522,100.021
2595.7166,100.019
2596.6807,100.014
2597.6450,100.009
2598.6091,100.008
2599.5735,100.011
2600.5376,100.017
2601.5020,100.024
2602.4661,100.03
2603.4304,100.032
2604.3945,100.031
2605.3589,100.031
2606.3230,100.032
2607.2874,100.037
2608.2515,100.044
2609.2158,100.051
2610.1799,100.057
2611.1443,100.059
2612.1084,100.058
2613.0728,100.056
2614.0369,100.055
2615.0012,100.057
2615.9653,100.062
2616.9297,100.068
2617.8938,100.074
2618.8582,100.079
2619.8223,100.082
2620.7866,100.083
2621.7507,100.082
2622.7151,100.082
2623.6792,100.083
2624.6436,100.087
2625.6077,100.093
2626.5720,100.102
2627.5361,100.11
2628.5005,100.117
2629.4646,100.121
2630.4290,100.122
2631.3931,100.121
2632.3574,100.12
2633.3215,100.122
2634.2859,100.126
2635.2500,100.133
2636.2144,100.141
2637.1785,100.147
2638.1428,100.15
2639.1069,100.151
2640.0713,100.149
2641.0354,100.149
2641.9998,100.153
2642.9639,100.161
2643.9282,100.171
2644.8923,100.18
2645.8567,100.186
2646.8208,100.188
2647.7852,100.186
2648.7493,100.183
2649.7136,100.179
2650.6777,100.177
2651.6421,100.177
2652.6062,100.179
2653.5706,100.185
2654.5347,100.194
2655.4990,100.204
2656.4631,100.214
2657.4275,100.223
2658.3916,100.228
2659.3560,100.23
2660.3201,100.23
2661.2844,100.23
2662.2485,100.231
2663.2129,100.235
2664.1770,100.242
2665.1414,100.252
2666.1055,100.264
2667.0698,100.275
2668.0339,100.283
2668.9983,100.287
2669.9624,100.29
2670.9268,100.291
2671.8909,100.295
2672.8552,100.302
2673.8193,100.312
2674.7837,100.323
2675.7478,100.331
2676.7122,100.334
2677.6763,100.332
2678.6406,100.323
2679.6047,100.312
2680.5691,100.3
2681.5332,100.292
2682.4976,100.289
2683.4617,100.29
2684.4260,100.292
2685.3901,100.295
2686.3545,100.295
2687.3186,100.294
2688.2830,100.294
2689.2471,100.295
2690.2114,100.298
2691.1755,100.301
2692.1399,100.303
2693.1040,100.303
2694.0684,100.301
2695.0325,100.299
2695.9968,100.298
2696.9609,100.301
2697.9253,100.307
2698.8894,100.315
2699.8538,100.323
2700.8179,100.329
2701.7822,100.333
2702.7463,100.333
2703.7107,100.328
2704.6748,100.321
2705.6392,100.31
2706.6033,100.299
2707.5676,100.289
2708.5317,100.283
2709.4961,100.283
2710.4602,100.287
2711.4246,100.293
2712.3887,100.297
2713.3530,100.295
2714.3171,100.288
2715.2815,100.277
2716.2456,100.265
2717.2100,100.256
2718.1741,100.252
2719.1384,100.252
2720.1025,100.254
2721.0669,100.255
2722.0310,100.254
2722.9954,100.249
2723.9595,100.242
2724.9238,100.233
2725.8879,100.223
2726.8523,100.215
2727.8164,100.207
2728.7808,100.2
2729.7449,100.194
2730.7092,100.19
2731.6733,100.189
2732.6377,100.191
2733.6018,100.199
2734.5662,100.21
2735.5303,100.224
2736.4946,100.237
2737.4587,100.248
2738.4231,100.256
2739.3872,100.264
2740.3516,100.275
2741.3157,100.289
2742.2800,100.308
2743.2441,100.332
2744.2085,100.357
2745.1726,100.382
2746.1370,100.403
2747.1011,100.421
2748.0654,100.433
2749.0295,100.441
2749.9939,100.447
2750.9580,100.452
2751.9224,100.458
2752.8865,100.465
2753.8508,100.471
2754.8149,100.476
2755.7793,100.478
2756.7434,100.476
2757.7078,100.469
2758.6719,100.461
2759.6362,100.451
2760.6003,100.443
2761.5647,100.435
2762.5288,100.428
2763.4932,100.419
2764.4573,100.409
2765.4216,100.396
2766.3857,100.383
2767.3501,100.374
2768.3142,100.37
2769.2786,100.37
2770.2427,100.37
2771.2070,100.365
2772.1711,100.349
2773.1355,100.323
2774.0996,100.288
2775.0640,100.252
2776.0281,100.218
2776.9924,100.189
2777.9565,100.164
2778.9209,100.135
2779.8850,100.101
2780.8494,100.06
2781.8135,100.016
2782.7778,99.9739
2783.7419,99.9384
2784.7063,99.9115
2785.6704,99.8925
2786.6348,99.8783
2787.5989,99.8654
2788.5632,99.8511
2789.5273,99.8346
2790.4917,99.8171
2791.4558,99.8012
2792.4202,99.7888
2793.3843,99.7808
2794.3486,99.7757
2795.3127,99.7709
2796.2771,99.7638
2797.2412,99.7527
2798.2056,99.7377
2799.1697,99.7202
2800.1340,99.701
2801.0981,99.6807
2802.0625,99.6587
2803.0266,99.6342
2803.9910,99.6069
2804.9551,99.5768
2805.9194,99.5441
2806.8835,99.5086
2807.8479,99.4697
2808.8120,99.4268
2809.7764,99.3795
2810.7405,99.328
2811.7048,99.2729
2812.6689,99.2151
2813.6333,99.1551
2814.5974,99.0936
2815.5618,99.0303
2816.5259,98.9643
2817.4902,98.8939
2818.4543,98.8164
2819.4187,98.7294
2820.3828,98.6315
2821.3472,98.5235
2822.3113,98.4073
2823.2756,98.2853
2824.2397,98.1588
2825.2041,98.0276
2826.1682,97.8899
2827.1326,97.7433
2828.0967,97.5854
2829.0610,97.4139
2830.0251,97.2275
2830.9895,97.0251
2831.9536,96.8065
2832.9180,96.5723
2833.8821,96.3235
2834.8464,96.0608
2835.8105,95.784
2836.7749,95.4921
2837.7390,95.1841
2838.7034,94.8589
2839.6675,94.5158
2840.6318,94.1533
2841.5959,93.7679
2842.5603,93.3552
2843.5244,92.9132
2844.4888,92.4464
2845.4529,91.969
2846.4172,91.5042
2847.3813,91.0784
2848.3457,90.7129
2849.3098,90.417
2850.2742,90.1867
2851.2383,90.0083
2852.2026,89.8662
2853.1667,89.7485
2854.1311,89.6494
2855.0952,89.5669
2856.0596,89.4981
2857.0237,89.4372
2857.9880,89.3749
2858.9521,89.3021
2859.9165,89.2121
2860.8806,89.102
2861.8450,88.9729
2862.8091,88.8277
2863.7734,88.6705
2864.7375,88.5063
2865.7019,88.3411
2866.6660,88.1816
2867.6304,88.0349
2868.5945,87.907
2869.5588,87.8021
2870.5229,87.7226
2871.4873,87.6686
2872.4514,87.6383
2873.4158,87.6281
2874.3799,87.6329
2875.3442,87.6463
2876.3083,87.6612
2877.2727,87.6706
2878.2368,87.6688
2879.2012,87.6523
2880.1653,87.6212
2881.1296,87.5788
2882.0938,87.5309
2883.0581,87.483
2884.0222,87.4386
2884.9866,87.3972
2885.9507,87.3542
2886.9150,87.3026
2887.8792,87.2355
2888.8435,87.1489
2889.8076,87.0438
2890.7720,86.9265
2891.7361,86.8048
2892.7004,86.6834
2893.6646,86.5585
2894.6289,86.417
2895.5930,86.2425
2896.5574,86.0246
2897.5215,85.7681
2898.4858,85.4942
2899.4500,85.2327
2900.4143,85.0086
2901.3784,84.8305
2902.3428,84.6872
2903.3069,84.5541
2904.2712,84.4049
2905.2354,84.2211
2906.1997,83.9959
2907.1638,83.7308
2908.1282,83.4309
2909.0923,83.1011
2910.0566,82.7465
2911.0208,82.3742
2911.9851,81.9946
2912.9492,81.6217
2913.9136,81.2701
2914.8777,80.9527
2915.8420,80.678
2916.8062,80.4491
2917.7705,80.2645
2918.7346,80.1206
2919.6990,80.0149
2920.6631,79.9481
2921.6274,79.9237
2922.5916,79.9464
2923.5559,80.0182
2924.5200,80.1367
2925.4844,80.2952
2926.4485,80.485
2927.4128,80.6991
2928.3770,80.9334
2929.3413,81.1865
2930.3054,81.4579
2931.2698,81.7454
2932.2339,82.0444
2933.1982,82.3488
2934.1624,82.6529
2935.1267,82.9531
2936.0908,83.2474
2937.0552,83.5341
2938.0193,83.8101
2938.9836,84.0707
2939.9478,84.3109
2940.9121,84.5281
2941.8762,84.7224
2942.8406,84.896
2943.8047,85.0499
2944.7690,85.1814
2945.7332,85.2837
2946.6975,85.3491
2947.6616,85.3732
2948.6260,85.3572
2949.5901,85.3082
2950.5544,85.2357
2951.5186,85.1486
2952.4829,85.053
2953.4470,84.9531
2954.4114,84.8529
2955.3755,84.7576
2956.3398,84.6742
2957.3040,84.6092
2958.2683,84.5667
2959.2324,84.5477
2960.1968,84.55
2961.1609,84.5693
2962.1252,84.6013
2963.0894,84.6428
2964.0537,84.6919
2965.0178,84.7488
2965.9822,84.8154
2966.9463,84.8952
2967.9106,84.9925
2968.8748,85.1122
2969.8391,85.2585
2970.8032,85.4334
2971.7676,85.6366
2972.7317,85.865
2973.6960,86.1139
2974.6602,86.378
2975.6245,86.6535
2976.5886,86.9383
2977.5530,87.2321
2978.5171,87.5358
2979.4814,87.8494
2980.4456,88.1704
2981.4099,88.4919
2982.3740,88.8036
2983.3384,89.0955
2984.3025,89.3643
2985.2668,89.6192
2986.2310,89.8822
2987.1953,90.1816
2988.1594,90.5388
2989.1238,90.9567
2990.0879,91.415
2991.0522,91.878
2992.0164,92.3088
2992.9807,92.6844
2993.9448,93.0024
2994.9092,93.2772
2995.8733,93.5298
2996.8376,93.7767
2997.8018,94.0252
2998.7661,94.2745
2999.7302,94.5211
3000.6946,94.7631
3001.6587,95.0016
3002.6230,95.2403
3003.5872,95.4827
3004.5515,95.7297
3005.5156,95.9787
3006.4800,96.223
3007.4441,96.4544
3008.4084,96.6665
3009.3726,96.8581
3010.3369,97.0347
3011.3010,97.2059
3012.2654,97.3803
3013.2295,97.5602
3014.1938,97.7396
3015.1580,97.9078
3016.1223,98.0555
3017.0864,98.1796
3018.0508,98.284
3019.0149,98.3758
3019.9792,98.4617
3020.9434,98.5444
3021.9077,98.624
3022.8718,98.6997
3023.8362,98.7716
3024.8003,98.8402
3025.7646,98.9051
3026.7288,98.9647
3027.6931,99.0169
3028.6572,99.0618
3029.6216,99.1027
3030.5857,99.1446
3031.5500,99.1919
3032.5142,99.2456
3033.4785,99.3035
3034.4426,99.3623
3035.4070,99.4204
3036.3711,99.478
3037.3354,99.5358
3038.2996,99.5927
3039.2639,99.6447
3040.2280,99.6862
3041.1924,99.7128
3042.1565,99.7237
3043.1208,99.7226
3044.0850,99.7159
3045.0493,99.7107
3046.0134,99.7123
3046.9778,99.7225
3047.9419,99.7391
3048.9063,99.7308
3049.8704,99.7118
3050.8347,99.6837
3051.7988,99.6455
3052.7632,99.6009
3053.7273,99.5559
3054.6917,99.5172
3055.6558,99.4892
3056.6201,99.4729
3057.5842,99.465
3058.5486,99.4596
3059.5127,99.4497
3060.4771,99.4299
3061.4412,99.3983
3062.4055,99.357
3063.3696,99.312
3064.3340,99.2707
3065.2981,99.2384
3066.2625,99.2164
3067.2266,99.2022
3068.1909,99.1911
3069.1550,99.179
3070.1194,99.1638
3071.0835,99.1445
3072.0479,99.1201
3073.0120,99.0893
3073.9763,99.051
3074.9404,99.0058
3075.9048,98.9569
3076.8689,98.909
3077.8333,98.867
3078.7974,98.8334
3079.7617,98.8078
3080.7258,98.7868
3081.6902,98.7663
3082.6543,98.7427
3083.6187,98.7143
3084.5828,98.6811
3085.5471,98.6449
3086.5112,98.6076
3087.4756,98.5697
3088.4397,98.5305
3089.4041,98.4874
3090.3682,98.438
3091.3325,98.3813
3092.2966,98.3185
3093.2610,98.2524
3094.2251,98.1858
3095.1895,98.1204
3096.1536,98.0563
3097.1179,97.9927
3098.0820,97.9295
3099.0464,97.867
3100.0105,97.8061
3100.9749,97.7475
3101.9390,97.6913
3102.9033,97.6372
3103.8674,97.5856
3104.8318,97.5366
3105.7959,97.4899
3106.7603,97.4441
3107.7244,97.3964
3108.6887,97.3441
3109.6528,97.2852
3110.6172,97.2196
3111.5813,97.1487
3112.5457,97.0745
3113.5098,97
3114.4741,96.928
3115.4382,96.8609
3116.4026,96.8004
3117.3667,96.7464
3118.3311,96.6973
3119.2952,96.6503
3120.2595,96.6024
3121.2236,96.5516
3122.1880,96.4973
3123.1521,96.4411
3124.1165,96.3856
3125.0806,96.3331
3126.0449,96.2845
3127.0090,96.238
3127.9734,96.1896
3128.9375,96.1352
3129.9019,96.073
3130.8660,96.0049
3131.8303,95.9356
3132.7944,95.8704
3133.7588,95.8119
3134.7229,95.7593
3135.6873,95.7089
3136.6514,95.6569
3137.6157,95.6014
3138.5798,95.5425
3139.5442,95.4817
3140.5083,95.4205
3141.4727,95.3594
3142.4368,95.2978
3143.4011,95.2343
3144.3652,95.1677
3145.3296,95.0976
3146.2937,95.0263
3147.2581,94.9574
3148.2222,94.8954
3149.1865,94.8421
3150.1506,94.7952
3151.1150,94.7483
3152.0791,94.6944
3153.0435,94.629
3154.0076,94.5529
3154.9719,94.4712
3155.9360,94.3903
3156.9004,94.3148
3157.8645,94.2464
3158.8289,94.1837
3159.7930,94.1245
3160.7573,94.0659
3161.7214,94.0055
3162.6858,93.9412
3163.6499,93.8727
3164.6143,93.8013
3165.5784,93.73
3166.5427,93.6618
3167.5068,93.5985
3168.4712,93.5393
3169.4353,93.5322
3170.3997,93.472
3171.3638,93.4067
3172.3281,93.3359
3173.2922,93.2609
3174.2566,93.1847
3175.2207,93.1109
3176.1851,93.042
3177.1492,92.9785
3178.1135,92.9178
3179.0776,92.8559
3180.0420,92.7896
3181.0061,92.7195
3181.9705,92.6502
3182.9346,92.5887
3183.8989,92.5395
3184.8630,92.5013
3185.8274,92.4671
3186.7915,92.4271
3187.7559,92.3741
3188.7200,92.3068
3189.6843,92.23
3190.6484,92.1511
3191.6128,92.076
3192.5769,92.0067
3193.5413,91.9424
3194.5054,91.8811
3195.4697,91.8218
3196.4338,91.7651
3197.3982,91.7118
3198.3623,91.6617
3199.3267,91.6134
3200.2908,91.5654
3201.2551,91.5171
3202.2192,91.4689
3203.1836,91.4208
3204.1477,91.3722
3205.1121,91.3215
3206.0762,91.2675
3207.0405,91.2105
3208.0046,91.1517
3208.9690,91.0928
3209.9331,91.0341
3210.8975,90.9753
3211.8616,90.9167
3212.8259,90.8602
3213.7900,90.8092
3214.7544,90.7667
3215.7185,90.7325
3216.6829,90.703
3217.6470,90.6728
3218.6113,90.6371
3219.5754,90.5939
3220.5398,90.5441
3221.5039,90.4902
3222.4683,90.4352
3223.4324,90.3821
3224.3967,90.3334
3225.3608,90.2913
3226.3252,90.2564
3227.2893,90.2269
3228.2537,90.1992
3229.2178,90.1685
3230.1821,90.1321
3231.1462,90.0895
3232.1106,90.0431
3233.0747,89.9963
3234.0391,89.9519
3235.0032,89.911
3235.9675,89.8725
3236.9316,89.8341
3237.8960,89.7932
3238.8601,89.7478
3239.8245,89.6981
3240.7886,89.6467
3241.7529,89.5978
3242.7170,89.5557
3243.6814,89.5229
3244.6455,89.4985
3245.6099,89.4789
3246.5740,89.4591
3247.5383,89.4351
3248.5024,89.4057
3249.4668,89.3719
3250.4309,89.3359
3251.3953,89.2993
3252.3594,89.2622
3253.3237,89.2232
3254.2878,89.1815
3255.2522,89.1382
3256.2163,89.097
3257.1807,89.0623
3258.1448,89.0361
3259.1091,89.016
3260.0732,88.9953
3261.0376,88.9671
3262.0017,88.9284
3262.9661,88.8825
3263.9302,88.8371
3264.8945,88.7994
3265.8586,88.7715
3266.8230,88.7488
3267.7871,88.7232
3268.7515,88.6883
3269.7156,88.6428
3270.6799,88.5905
3271.6440,88.5382
3272.6084,88.4919
3273.5725,88.455
3274.5369,88.4282
3275.5010,88.4103
3276.4653,88.3991
3277.4294,88.391
3278.3938,88.3819
3279.3579,88.3683
3280.3223,88.348
3281.2864,88.3217
3282.2507,88.2919
3283.2148,88.2607
3284.1792,88.2286
3285.1433,88.194
3286.1077,88.1545
3287.0718,88.1093
3288.0361,88.0607
3289.0002,88.0135
3289.9646,87.9731
3290.9287,87.943
3291.8931,87.9234
3292.8572,87.9114
3293.8215,87.9019
3294.7856,87.8897
3295.7500,87.8707
3296.7141,87.8428
3297.6785,87.8069
3298.6426,87.7667
3299.6069,87.7274
3300.5710,87.6935
3301.5354,87.667
3302.4995,87.6463
3303.4639,87.6278
3304.4280,87.6084
3305.3923,87.5875
3306.3564,87.5674
3307.3208,87.5508
3308.2849,87.5386
3309.2493,87.529
3310.2134,87.5182
3311.1777,87.5032
3312.1418,87.4831
3313.1062,87.4594
3314.0703,87.4344
3315.0347,87.41
3315.9988,87.3872
3316.9631,87.3661
3317.9272,87.3469
3318.8916,87.3301
3319.8557,87.3155
3320.8201,87.3022
3321.7842,87.2889
3322.7485,87.2744
3323.7126,87.2584
3324.6770,87.2417
3325.6411,87.2253
3326.6055,87.2093
3327.5696,87.1925
3328.5339,87.1722
3329.4980,87.1462
3330.4624,87.1142
3331.4265,87.0786
3332.3909,87.0447
3333.3550,87.0193
3334.3193,87.0075
3335.2834,87.0101
3336.2478,87.022
3337.2119,87.0343
3338.1763,87.0381
3339.1404,87.0285
3340.1047,87.0068
3341.0688,86.9786
3342.0332,86.9506
3342.9973,86.9267
3343.9617,86.908
3344.9258,86.8934
3345.8901,86.8823
3346.8542,86.8755
3347.8186,86.8743
3348.7827,86.8781
3349.7471,86.8836
3350.7112,86.8853
3351.6755,86.8782
3352.6396,86.8608
3353.6040,86.8356
3354.5681,86.8077
3355.5325,86.7829
3356.4966,86.7648
3357.4609,86.754
3358.4250,86.7479
3359.3894,86.7427
3360.3535,86.7342
3361.3179,86.7204
3362.2820,86.7022
3363.2463,86.6841
3364.2104,86.6725
3365.1748,86.6731
3366.1389,86.6873
3367.1033,86.7112
3368.0674,86.7373
3369.0317,86.7581
3369.9958,86.7699
3370.9602,86.7737
3371.9243,86.7732
3372.8887,86.7715
3373.8528,86.7691
3374.8171,86.7646
3375.7813,86.7567
3376.7456,86.7465
3377.7097,86.738
3378.6741,86.7353
3379.6382,86.7404
3380.6025,86.7516
3381.5667,86.7645
3382.5310,86.7745
3383.4951,86.7792
3384.4595,86.7794
3385.4236,86.7784
3386.3879,86.7799
3387.3521,86.787
3388.3164,86.8015
3389.2805,86.8227
3390.2449,86.8475
3391.2090,86.8715
3392.1733,86.8906
3393.1375,86.9038
3394.1018,86.9151
3395.0659,86.9313
3396.0303,86.9577
3396.9944,86.994
3397.9587,87.0329
3398.9229,87.0643
3399.8872,87.0816
3400.8513,87.0859
3401.8157,87.0859
3402.7798,87.0927
3403.7441,87.113
3404.7083,87.1463
3405.6726,87.1859
3406.6367,87.2236
3407.6011,87.254
3408.5652,87.2767
3409.5295,87.2955
3410.4937,87.3155
3411.4580,87.3401
3412.4221,87.3693
3413.3865,87.3986
3414.3506,87.4219
3415.3149,87.4345
3416.2791,87.4363
3417.2434,87.434
3418.2075,87.4391
3419.1719,87.4634
3420.1360,87.5123
3421.1003,87.5813
3422.0645,87.658
3423.0288,87.7294
3423.9929,87.7884
3424.9573,87.8351
3425.9214,87.8744
3426.8857,87.9119
3427.8499,87.9511
3428.8142,87.9931
3429.7783,88.0376
3430.7427,88.0845
3431.7068,88.134
3432.6711,88.1859
3433.6353,88.2386
3434.5996,88.2893
3435.5637,88.3347
3436.5281,88.3732
3437.4922,88.4054
3438.4565,88.4336
3439.4207,88.4602
3440.3850,88.4864
3441.3491,88.511
3442.3135,88.5325
3443.2776,88.5512
3444.2419,88.5717
3445.2061,88.603
3446.1704,88.6549
3447.1345,88.7319
3448.0989,88.8292
3449.0630,88.9345
3450.0273,89.0341
3450.9915,89.1185
3451.9558,89.1842
3452.9199,89.2325
3453.8843,89.268
3454.8484,89.2964
3455.8127,89.3224
3456.7769,89.3489
3457.7412,89.3776
3458.7053,89.4102
3459.6697,89.4491
3460.6338,89.4972
3461.5981,89.5564
3462.5623,89.6257
3463.5266,89.7012
3464.4907,89.7776
3465.4551,89.8506
3466.4192,89.9186
3467.3835,89.9822
3468.3477,90.0431
3469.3120,90.1025
3470.2761,90.1605
3471.2405,90.2177
3472.2046,90.2757
3473.1689,90.3362
3474.1331,90.3992
3475.0974,90.4606
3476.0615,90.5136
3477.0259,90.5527
3477.9900,90.5775
3478.9543,90.5949
3479.9185,90.6162
3480.8828,90.652
3481.8469,90.706
3482.8113,90.7734
3483.7754,90.8457
3484.7397,90.9169
3485.7039,90.9869
3486.6682,91.0593
3487.6323,91.1371
3488.5967,91.2183
3489.5608,91.2959
3490.5251,91.3616
3491.4893,91.4114
3492.4536,91.4491
3493.4177,91.4851
3494.3821,91.5319
3495.3462,91.5954
3496.3105,91.6694
3497.2747,91.7371
3498.2390,91.7817
3499.2031,91.7973
3500.1675,91.7949
3501.1316,91.8001
3502.0959,91.841
3503.0601,91.9279
3504.0244,92.0443
3504.9885,92.1592
3505.9529,92.2494
3506.9170,92.3117
3507.8813,92.3591
3508.8455,92.4113
3509.8098,92.4824
3510.7739,92.5726
3511.7383,92.6715
3512.7024,92.7672
3513.6667,92.8548
3514.6309,92.9346
3515.5952,93.0079
3516.5593,93.0729
3517.5237,93.1257
3518.4878,93.1635
3519.4521,93.1873
3520.4163,93.2023
3521.3806,93.216
3522.3447,93.235
3523.3091,93.2625
3524.2732,93.2995
3525.2375,93.3478
3526.2017,93.414
3527.1660,93.5058
3528.1301,93.6263
3529.0945,93.7668
3530.0586,93.909
3531.0229,94.0354
3531.9871,94.1376
3532.9514,94.2188
3533.9155,94.2902
3534.8799,94.3652
3535.8440,94.4518
3536.8083,94.5471
3537.7725,94.6378
3538.7368,94.7089
3539.7009,94.7524
3540.6653,94.771
3541.6294,94.7767
3542.5938,94.7885
3543.5579,94.8299
3544.5222,94.9195
3545.4863,95.0558
3546.4507,95.2116
3547.4148,95.3529
3548.3792,95.4638
3549.3433,95.5526
3550.3076,95.6404
3551.2717,95.7468
3552.2361,95.8796
3553.2002,96.0297
3554.1646,96.1784
3555.1287,96.3109
3556.0930,96.4239
3557.0571,96.5204
3558.0215,96.6024
3558.9856,96.6668
3559.9500,96.7086
3560.9141,96.7259
3561.8784,96.7227
3562.8425,96.7071
3563.8069,96.6921
3564.7710,96.7078
3565.7354,96.8124
3566.6995,97.0485
3567.6638,97.3661
3568.6279,97.65
3569.5923,97.834
3570.5564,97.9337
3571.5208,97.9946
3572.4849,98.0481
3573.4492,98.1043
3574.4133,98.1628
3575.3777,98.2231
3576.3418,98.2879
3577.3062,98.3579
3578.2703,98.4279
3579.2346,98.4874
3580.1987,98.5263
3581.1631,98.5434
3582.1272,98.5475
3583.0916,98.5501
3584.0557,98.5567
3585.0200,98.5711
3585.9841,98.6099
3586.9485,98.6917
3587.9126,98.7916
3588.8770,98.8459
3589.8411,98.8222
3590.8054,98.7443
3591.7695,98.6555
3592.7339,98.5873
3593.6980,98.553
3594.6624,98.5493
3595.6265,98.5587
3596.5908,98.5634
3597.5549,98.563
3598.5193,98.5776
3599.4834,98.6318
3600.4478,98.7318
3601.4119,98.858
3602.3762,98.9809
3603.3403,99.0836
3604.3047,99.1668
3605.2688,99.2404
3606.2332,99.318
3607.1973,99.4113
3608.1616,99.517
3609.1257,99.6087
3610.0901,99.6535
3611.0542,99.6327
3612.0186,99.566
3612.9829,99.4881
3613.9470,99.4305
3614.9114,99.411
3615.8755,99.4305
3616.8398,99.4788
3617.8040,99.5418
3618.7683,99.5998
3619.7324,99.6182
3620.6968,99.5597
3621.6609,99.4284
3622.6252,99.2823
3623.5894,99.1954
3624.5537,99.2096
3625.5178,99.3118
3626.4822,99.4482
3627.4463,99.5761
3628.4106,99.6921
3629.3748,99.7735
3630.3391,99.7691
3631.3032,99.6899
3632.2676,99.6087
3633.2317,99.5854
3634.1960,99.6303
3635.1602,99.7146
3636.1245,99.7999
3637.0886,99.8622
3638.0530,99.8968
3639.0171,99.9081
3639.9814,99.8989
3640.9456,99.8711
3641.9099,99.8337
3642.8740,99.8055
3643.8384,99.8026
3644.8025,99.8148
3645.7668,99.7909
3646.7310,99.6775
3647.6953,99.5401
3648.6594,99.5868
3649.6238,99.845
3650.5879,100.066
3651.5522,100.113
3652.5164,100.053
3653.4807,99.9876
3654.4448,99.9574
3655.4092,99.9539
3656.3733,99.9507
3657.3376,99.9285
3658.3018,99.8874
3659.2661,99.8473
3660.2302,99.8286
3661.1946,99.8326
3662.1587,99.8433
3663.1230,99.8469
3664.0872,99.8483
3665.0515,99.8621
3666.0156,99.8878
3666.9800,99.8948
3667.9441,99.8484
3668.9084,99.7596
3669.8726,99.6828
3670.8369,99.6502
3671.8010,99.6504
3672.7654,99.6526
3673.7295,99.6291
3674.6938,99.5883
3675.6580,99.5792
3676.6223,99.6129
3677.5864,99.6411
3678.5508,99.639
3679.5149,99.6229
3680.4792,99.6065
3681.4434,99.5859
3682.4077,99.5582
3683.3718,99.5378
3684.3362,99.5455
3685.3003,99.5782
3686.2646,99.5885
3687.2288,99.5118
3688.1931,99.3477
3689.1572,99.1967
3690.1216,99.1441
3691.0857,99.1654
3692.0500,99.2031
3693.0142,99.2353
3693.9785,99.2636
3694.9426,99.2921
3695.9070,99.3245
3696.8711,99.3655
3697.8354,99.4181
3698.7996,99.4779
3699.7639,99.5348
3700.7280,99.58
3701.6924,99.6085
3702.6565,99.6153
3703.6208,99.5983
3704.5850,99.5671
3705.5493,99.5376
3706.5134,99.5151
3707.4778,99.4874
3708.4419,99.4488
3709.4063,99.4492
3710.3704,99.5921
3711.3347,99.8997
3712.2988,100.224
3713.2632,100.404
3714.2273,100.412
3715.1917,100.312
3716.1558,100.173
3717.1201,100.026
3718.0842,99.872
3719.0486,99.7038
3720.0127,99.5258
3720.9771,99.3559
3721.9412,99.2159
3722.9055,99.1218
3723.8696,99.0788
3724.8340,99.0787
3725.7981,99.1033
3726.7625,99.1369
3727.7266,99.1785
3728.6909,99.2377
3729.6550,99.3264
3730.6194,99.4
3731.5835,99.4133
3732.5479,99.3441
3733.5120,99.2505
3734.4763,99.2557
3735.4404,99.4005
3736.4048,99.5694
3737.3689,99.6562
3738.3333,99.6929
3739.2974,99.7902
3740.2617,100.031
3741.2258,100.405
3742.1902,100.802
3743.1543,101.05
3744.1187,101.035
3745.0828,100.786
3746.0471,100.438
3747.0112,100.13
3747.9756,99.9392
3748.9397,99.885
3749.9041,99.9695
3750.8682,100.156
3751.8325,100.308
3752.7966,100.304
3753.7610,100.168
3754.7251,100.006
3755.6895,99.8987
3756.6536,99.8706
3757.6179,99.9134
3758.5820,100.002
3759.5464,100.097
3760.5105,100.16
3761.4749,100.182
3762.4390,100.177
3763.4033,100.168
3764.3674,100.164
3765.3318,100.167
3766.2959,100.174
3767.2603,100.182
3768.2244,100.194
3769.1887,100.217
3770.1528,100.247
3771.1172,100.27
3772.0813,100.273
3773.0457,100.259
3774.0098,100.242
3774.9741,100.232
3775.9382,100.225
3776.9026,100.21
3777.8667,100.185
3778.8311,100.16
3779.7952,100.135
3780.7595,100.101
3781.7236,100.052
3782.6880,99.9977
3783.6521,99.9568
3784.6165,99.9477
3785.5806,99.9776
3786.5449,100.037
3787.5090,100.104
3788.4734,100.161
3789.4375,100.201
3790.4019,100.226
3791.3660,100.238
3792.3303,100.229
3793.2944,100.185
3794.2588,100.099
3795.2229,99.9875
3796.1873,99.8888
3797.1514,99.8367
3798.1157,99.8357
3799.0798,99.8597
3800.0442,99.877
3801.0083,99.877
3801.9727,99.8689
3802.9368,99.8705
3803.9011,99.9052
3804.8652,99.9897
3805.8296,100.11
3806.7937,100.217
3807.7581,100.251
3808.7222,100.196
3809.6865,100.096
3810.6506,100.031
3811.6150,100.047
3812.5791,100.124
3813.5435,100.184
3814.5076,100.153
3815.4719,100.02
3816.4360,99.8447
3817.4004,99.6976
3818.3645,99.6243
3819.3289,99.6378
3820.2930,99.718
3821.2573,99.806
3822.2214,99.8292
3823.1858,99.7653
3824.1499,99.6597
3825.1143,99.5786
3826.0784,99.5629
3827.0427,99.6136
3828.0068,99.7023
3828.9712,99.7915
3829.9353,99.8547
3830.8997,99.8861
3831.8638,99.8977
3832.8281,99.9059
3833.7922,99.9146
3834.7566,99.9071
3835.7207,99.8545
3836.6851,99.7444
3837.6492,99.606
3838.6135,99.495
3839.5776,99.4493
3840.5420,99.4721
3841.5061,99.5481
3842.4705,99.6519
3843.4346,99.745
3844.3989,99.7862
3845.3630,99.758
3846.3274,99.6887
3847.2915,99.6452
3848.2559,99.6992
3849.2200,99.885
3850.1843,100.168
3851.1484,100.449
3852.1128,100.643
3853.0769,100.74
3854.0413,100.7
3855.0054,100.462
3855.9697,100.107
3856.9338,99.7951
3857.8982,99.626
3858.8623,99.6024
3859.8267,99.6572
3860.7908,99.7021
3861.7551,99.6856
3862.7192,99.6301
3863.6836,99.6023
3864.6477,99.6428
3865.6121,99.7379
3866.5762,99.8435
3867.5405,99.9139
3868.5046,99.9211
3869.4690,99.8724
3870.4331,99.809
3871.3975,99.7717
3872.3616,99.7692
3873.3259,99.7852
3874.2900,99.8053
3875.2544,99.8275
3876.2185,99.8513
3877.1829,99.8671
3878.1470,99.8579
3879.1113,99.8176
3880.0754,99.766
3881.0398,99.7404
3882.0039,99.7685
3882.9683,99.85
3883.9324,99.9573
3884.8967,100.048
3885.8608,100.086
3886.8252,100.06
3887.7893,99.9878
3888.7537,99.8966
3889.7178,99.8049
3890.6821,99.7254
3891.6462,99.6701
3892.6106,99.6408
3893.5747,99.6299
3894.5391,99.6401
3895.5032,99.6809
3896.4675,99.7458
3897.4316,99.8056
3898.3960,99.8304
3899.3601,99.8128
3900.3245,99.7687
3901.2886,99.7189
3902.2529,99.6804
3903.2170,99.6654
3904.1814,99.6732
3905.1455,99.6891
3906.1099,99.7014
3907.0740,99.7125
3908.0383,99.7305
3909.0024,99.7558
3909.9668,99.78
3910.9309,99.7934
3911.8953,99.7937
3912.8594,99.7859
3913.8237,99.7772
3914.7878,99.7719
3915.7522,99.7716
3916.7163,99.7757
3917.6807,99.7766
3918.6448,99.759
3919.6091,99.7115
3920.5732,99.6393
3921.5376,99.5602
3922.5017,99.4954
3923.4661,99.4601
3924.4302,99.4556
3925.3945,99.4672
3926.3586,99.4746
3927.3230,99.4666
3928.2871,99.4452
3929.2515,99.4213
3930.2156,99.4122
3931.1799,99.4346
3932.1440,99.4909
3933.1084,99.5633
3934.0725,99.6274
3935.0369,99.6698
3936.0010,99.6896
3936.9653,99.6904
3937.9294,99.6744
3938.8938,99.6422
3939.8579,99.5985
3940.8223,99.5548
3941.7864,99.5258
3942.7507,99.5191
3943.7148,99.5281
3944.6792,99.5374
3945.6433,99.5341
3946.6077,99.5139
3947.5718,99.4827
3948.5361,99.4534
3949.5002,99.4385
3950.4646,99.4414
3951.4287,99.4575
3952.3931,99.4798
3953.3572,99.5032
3954.3215,99.5244
3955.2856,99.5401
3956.2500,99.5472
3957.2141,99.544
3958.1785,99.5315
3959.1426,99.515
3960.1069,99.5027
3961.0710,99.5026
3962.0354,99.5182
3962.9995,99.5453
3963.9639,99.5745
3964.9280,99.5954
3965.8923,99.6011
3966.8564,99.5897
3967.8208,99.5633
3968.7849,99.5275
3969.7493,99.4888
3970.7134,99.4543
3971.6777,99.4309
3972.6418,99.4235
3973.6062,99.434
3974.5703,99.4586
3975.5347,99.4885
3976.4988,99.5133
3977.4631,99.5249
3978.4272,99.521
3979.3916,99.5046
3980.3557,99.4816
3981.3201,99.4581
3982.2842,99.4384
3983.2485,99.4249
3984.2126,99.4182
3985.1770,99.4188
3986.1411,99.4255
3987.1055,99.4348
3988.0696,99.4403
3989.0339,99.4343
3989.9980,99.4124
3990.9624,99.3796
3991.9265,99.3434
3992.8909,99.3151
3993.8550,99.3045
3994.8193,99.3138
3995.7834,99.3371
3996.7478,99.364
3997.7119,99.3862
3998.6763,99.4013
3999.6404,99.4117
4000.6047,99.2242

##### Extended Information
[Comments]
Sample name
Comment
User
Division
Company,HANKYONG

[Detailed Information]
Creation date,4/24/2024 11:55 AM

Data array type,Linear data array
Horizontal axis,Wavenumber [cm-1]
Vertical axis,%T
Start,649.893 cm-1
End,4000.6 cm-1
Data interval,0.964233 cm-1
Data points,3476    

[Measurement Information]
Model Name,FT/IR-4700typeA
Serial Number,D056761788

Accessory,ATR PRO ONE
Accessory S/N,C174761809
Incident angle,45 deg

Measurement Date,4/24/2024 11:54 AM

Light Source,Standard
Detector,TGS
Accumulation,32
Resolution,4 cm-1
Zero Filling,On
Apodization,Cosine
Gain,Auto (4)
Aperture,Auto (7.1 mm)
Scanning Speed,Auto (2 mm/sec)
Filter,Auto (30000 Hz)

