TITLE,
DATA TYPE,INFRARED SPECTRUM
ORIGIN,JASCO
OWNER,
DATE,24/04/24
TIME,11:56:40
SPECTROMETER/DATA SYSTEM,
LOCALE,1033
RESOLUTION,
DELTAX,0.964233
XUNITS,1/CM
YUNITS,TRANSMITTANCE
FIRSTX,  649.8934
LASTX, 4000.6047
NPOINTS,    3476
FIRSTY,    98.90447
MAXY,   101.60278
MINY,    69.74332
XYDATA
649.8934,98.9045
650.8576,98.7586
651.8218,98.6205
652.7861,98.5188
653.7503,98.4695
654.7145,98.4732
655.6788,98.5067
656.6430,98.5292
657.6072,98.5038
658.5715,98.4221
659.5357,98.3151
660.4999,98.2361
661.4642,98.219
662.4284,98.2428
663.3926,98.2317
664.3569,98.0752
665.3211,97.6448
666.2853,96.8275
667.2496,95.6645
668.2138,94.576
669.1780,94.1583
670.1423,94.4756
671.1065,95.0955
672.0707,95.6523
673.0350,95.9953
673.9992,96.0991
674.9634,96.0045
675.9277,95.7984
676.8919,95.5872
677.8561,95.4524
678.8204,95.4223
679.7846,95.4785
680.7488,95.582
681.7131,95.6962
682.6773,95.8015
683.6415,95.8983
684.6058,95.9988
685.5700,96.1126
686.5342,96.2343
687.4985,96.3414
688.4627,96.4054
689.4269,96.4086
690.3912,96.3573
691.3554,96.2858
692.3196,96.2516
693.2839,96.3154
694.2481,96.5007
695.2123,96.7708
696.1766,97.0578
697.1408,97.3044
698.1050,97.4803
699.0693,97.5833
700.0335,97.6308
700.9977,97.6481
701.9620,97.6558
702.9262,97.6628
703.8904,97.6669
704.8547,97.6607
705.8189,97.6375
706.7831,97.5948
707.7474,97.5333
708.7116,97.455
709.6758,97.361
710.6401,97.2509
711.6043,97.1209
712.5685,96.9629
713.5328,96.7636
714.4970,96.5075
715.4612,96.2674
716.4255,95.8791
717.3897,95.4646
718.3539,95.081
719.3182,94.7919
720.2824,94.638
721.2466,94.6113
722.2109,94.6547
723.1751,94.6923
724.1393,94.6641
725.1036,94.5484
726.0678,94.3617
727.0320,94.1441
727.9963,93.9367
728.9605,93.7634
729.9247,93.6239
730.8890,93.5
731.8532,93.3677
732.8174,93.2069
733.7817,93.0041
734.7459,92.7515
735.7101,92.4438
736.6744,92.0783
737.6386,91.6578
738.6028,91.1925
739.5671,90.6993
740.5313,90.1974
741.4955,89.7035
742.4598,89.2285
743.4240,88.7791
744.3882,88.3608
745.3525,87.9798
746.3167,87.6426
747.2809,87.3543
748.2452,87.1176
749.2094,86.934
750.1736,86.8041
751.1379,86.7273
752.1021,86.6992
753.0663,86.7095
754.0306,86.744
754.9948,86.7894
755.9590,86.8385
756.9233,86.8912
757.8875,86.95
758.8517,87.0135
759.8160,87.0746
760.7802,87.1234
761.7444,87.1555
762.7087,87.1763
763.6729,87.1992
764.6371,87.2387
765.6014,87.3024
766.5656,87.3888
767.5298,87.4905
768.4941,87.6007
769.4583,87.7172
770.4225,87.842
771.3868,87.9772
772.3510,88.1201
773.3152,88.2602
774.2795,88.3813
775.2437,88.4664
776.2079,88.5041
777.1722,88.4931
778.1364,88.4418
779.1006,88.3619
780.0649,88.2617
781.0291,88.1419
781.9933,87.9981
782.9576,87.8291
783.9218,87.6436
784.8860,87.4595
785.8503,87.296
786.8145,87.1614
787.7787,87.048
788.7430,86.9357
789.7072,86.804
790.6714,86.6435
791.6357,86.4598
792.5999,86.2681
793.5641,86.0816
794.5284,85.9046
795.4926,85.731
796.4568,85.5502
797.4211,85.354
798.3853,85.1406
799.3495,84.9133
800.3138,84.6767
801.2780,84.434
802.2422,84.1868
803.2065,83.9374
804.1707,83.6902
805.1349,83.4523
806.0992,83.2316
807.0634,83.0356
808.0276,82.871
808.9919,82.7445
809.9561,82.6621
810.9203,82.6276
811.8846,82.639
812.8488,82.6865
813.8130,82.7543
814.7773,82.8254
815.7415,82.888
816.7057,82.9391
817.6700,82.983
818.6342,83.0257
819.5984,83.0701
820.5627,83.1136
821.5269,83.1501
822.4911,83.1745
823.4554,83.1854
824.4196,83.1846
825.3839,83.1747
826.3481,83.1564
827.3123,83.1288
828.2766,83.0921
829.2408,83.0495
830.2050,83.0069
831.1693,82.9688
832.1335,82.9347
833.0977,82.8966
834.0620,82.842
835.0262,82.759
835.9904,82.6415
836.9547,82.4919
837.9189,82.3186
838.8831,82.1324
839.8474,81.9414
840.8116,81.7494
841.7758,81.5558
842.7401,81.3576
843.7043,81.151
844.6685,80.9334
845.6328,80.7042
846.5970,80.4663
847.5612,80.2262
848.5255,79.993
849.4897,79.7764
850.4539,79.584
851.4182,79.4193
852.3824,79.2818
853.3466,79.1687
854.3109,79.0776
855.2751,79.0075
856.2393,78.9587
857.2036,78.9306
858.1678,78.9203
859.1320,78.923
860.0963,78.9339
861.0605,78.9517
862.0247,78.9801
862.9890,79.0275
863.9532,79.1031
864.9174,79.2127
865.8817,79.3558
866.8459,79.5257
867.8101,79.7124
868.7744,79.9057
869.7386,80.0969
870.7028,80.279
871.6671,80.4452
872.6313,80.5886
873.5955,80.7039
874.5598,80.7895
875.5240,80.8493
876.4882,80.8916
877.4525,80.9266
878.4167,80.9624
879.3809,81.0033
880.3452,81.0499
881.3094,81.1024
882.2736,81.1628
883.2379,81.2367
884.2021,81.3309
885.1663,81.4503
886.1306,81.5952
887.0948,81.7606
888.0590,81.9394
889.0233,82.1266
889.9875,82.3217
890.9517,82.5292
891.9160,82.7551
892.8802,83.0032
893.8444,83.273
894.8087,83.5603
895.7729,83.8593
896.7371,84.165
897.7014,84.4741
898.6656,84.7844
899.6298,85.0935
900.5941,85.3981
901.5583,85.6942
902.5225,85.9775
903.4868,86.2442
904.4510,86.4906
905.4152,86.7133
906.3795,86.9088
907.3437,87.073
908.3079,87.2023
909.2722,87.2945
910.2364,87.3498
911.2006,87.372
912.1649,87.3675
913.1291,87.3448
914.0933,87.312
915.0576,87.276
916.0218,87.2418
916.9860,87.2125
917.9503,87.1903
918.9145,87.1764
919.8787,87.1718
920.8430,87.1777
921.8072,87.1955
922.7714,87.2268
923.7357,87.2725
924.6999,87.3326
925.6641,87.4073
926.6284,87.499
927.5926,87.6145
928.5568,87.7653
929.5211,87.9666
930.4853,88.2356
931.4495,88.5896
932.4138,89.0452
933.3780,89.616
934.3422,90.3089
935.3065,91.1174
936.2707,92.0173
937.2349,92.9672
938.1992,93.9163
939.1634,94.8173
940.1276,95.6378
941.0919,96.3662
942.0561,97.0082
943.0203,97.577
943.9846,98.0834
944.9488,98.5309
945.9130,98.9168
946.8773,99.238
947.8415,99.496
948.8057,99.6987
949.7700,99.8576
950.7342,99.9836
951.6984,100.083
952.6627,100.155
953.6269,100.198
954.5911,100.208
955.5554,100.186
956.5196,100.135
957.4838,100.058
958.4481,99.9664
959.4123,99.8828
960.3765,99.7705
961.3408,99.6282
962.3050,99.4597
963.2692,99.2746
964.2335,99.0862
965.1977,98.9071
966.1619,98.7459
967.1262,98.6057
968.0904,98.4861
969.0546,98.3861
970.0189,98.306
970.9831,98.2471
971.9473,98.2105
972.9116,98.1941
973.8758,98.1933
974.8400,98.2013
975.8043,98.2111
976.7685,98.2169
977.7327,98.2133
978.6970,98.1952
979.6612,98.1574
980.6254,98.0956
981.5897,98.007
982.5539,97.8915
983.5181,97.7513
984.4824,97.5896
985.4466,97.4112
986.4108,97.2227
987.3751,97.0331
988.3393,96.8542
989.3035,96.6991
990.2678,96.5792
991.2320,96.5012
992.1962,96.4651
993.1605,96.4642
994.1247,96.4868
995.0889,96.5205
996.0532,96.5558
997.0174,96.5883
997.9816,96.6181
998.9459,96.6464
999.9101,96.672
1000.8743,96.6885
1001.8386,96.6842
1002.8028,96.6441
1003.7670,96.5531
1004.7313,96.3977
1005.6955,96.1682
1006.6597,95.859
1007.6240,95.4695
1008.5882,95.003
1009.5524,94.4667
1010.5167,93.8694
1011.4809,93.2209
1012.4451,92.5297
1013.4094,91.8012
1014.3736,91.0372
1015.3378,90.2363
1016.3021,89.3964
1017.2663,88.5188
1018.2305,87.6099
1019.1948,86.679
1020.1590,85.7309
1021.1232,84.7602
1022.0875,83.7513
1023.0517,82.6887
1024.0160,81.5722
1024.9802,80.4261
1025.9445,79.2965
1026.9087,78.2331
1027.8729,77.2685
1028.8372,76.405
1029.8014,75.6196
1030.7656,74.8817
1031.7299,74.1736
1032.6941,73.502
1033.6583,72.8949
1034.6226,72.3888
1035.5868,72.0135
1036.5510,71.7814
1037.5153,71.685
1038.4795,71.6999
1039.4437,71.7928
1040.4080,71.9292
1041.3722,72.0817
1042.3364,72.2344
1043.3007,72.3835
1044.2649,72.5338
1045.2291,72.6932
1046.1934,72.8689
1047.1576,73.0654
1048.1218,73.2856
1049.0861,73.5315
1050.0503,73.8031
1051.0145,74.0965
1051.9788,74.403
1052.9430,74.7126
1053.9072,75.02
1054.8715,75.3304
1055.8357,75.6597
1056.7999,76.0251
1057.7642,76.4303
1058.7284,76.852
1059.6926,77.2383
1060.6569,77.5241
1061.6211,77.6582
1062.5853,77.6292
1063.5496,77.4739
1064.5138,77.2633
1065.4780,77.0691
1066.4423,76.9312
1067.4065,76.8414
1068.3707,76.752
1069.3350,76.6028
1070.2992,76.3497
1071.2634,75.9808
1072.2277,75.514
1073.1919,74.9832
1074.1561,74.423
1075.1204,73.8594
1076.0846,73.3094
1077.0488,72.7831
1078.0131,72.2872
1078.9773,71.8263
1079.9415,71.4031
1080.9058,71.0189
1081.8700,70.6745
1082.8342,70.3718
1083.7985,70.1151
1084.7627,69.9134
1085.7269,69.7823
1086.6912,69.7433
1087.6554,69.8194
1088.6196,70.0259
1089.5839,70.3623
1090.5481,70.8083
1091.5123,71.3285
1092.4766,71.8847
1093.4408,72.4494
1094.4050,73.0131
1095.3693,73.5842
1096.3335,74.1805
1097.2977,74.8184
1098.2620,75.5058
1099.2262,76.2388
1100.1904,77.0039
1101.1547,77.7824
1102.1189,78.5552
1103.0831,79.3063
1104.0474,80.0258
1105.0116,80.7111
1105.9758,81.3657
1106.9401,81.9973
1107.9043,82.6151
1108.8685,83.2283
1109.8328,83.8458
1110.7970,84.4763
1111.7612,85.1285
1112.7255,85.8088
1113.6897,86.5192
1114.6539,87.2562
1115.6182,88.0123
1116.5824,88.7792
1117.5466,89.5511
1118.5109,90.3257
1119.4751,91.1029
1120.4393,91.8816
1121.4036,92.6579
1122.3678,93.4246
1123.3320,94.1727
1124.2963,94.8934
1125.2605,95.5793
1126.2247,96.2246
1127.1890,96.8255
1128.1532,97.3789
1129.1174,97.8825
1130.0817,98.3333
1131.0459,98.727
1132.0101,99.0575
1132.9744,99.307
1133.9386,99.4492
1134.9028,99.5133
1135.8671,99.4995
1136.8313,99.4092
1137.7955,99.2444
1138.7598,99.0066
1139.7240,98.6988
1140.6882,98.3273
1141.6525,97.9041
1142.6167,97.4473
1143.5809,96.9806
1144.5452,96.5305
1145.5094,96.1237
1146.4736,95.7835
1147.4379,95.5258
1148.4021,95.3569
1149.3663,95.2718
1150.3306,95.2551
1151.2948,95.2837
1152.2590,95.3313
1153.2233,95.3726
1154.1875,95.3867
1155.1517,95.3593
1156.1160,95.2827
1157.0802,95.1543
1158.0444,94.9749
1159.0087,94.7469
1159.9729,94.4743
1160.9371,94.1623
1161.9014,93.818
1162.8656,93.4489
1163.8298,93.0615
1164.7941,92.6594
1165.7583,92.2434
1166.7225,91.8137
1167.6868,91.372
1168.6510,90.9233
1169.6152,90.4748
1170.5795,90.0337
1171.5437,89.604
1172.5079,89.1854
1173.4722,88.7731
1174.4364,88.3605
1175.4006,87.9415
1176.3649,87.5129
1177.3291,87.0756
1178.2933,86.6342
1179.2576,86.1952
1180.2218,85.7648
1181.1860,85.3467
1182.1503,84.941
1183.1145,84.5456
1184.0787,84.1582
1185.0430,83.7785
1186.0072,83.4091
1186.9714,83.0542
1187.9357,82.7176
1188.8999,82.4009
1189.8641,82.1032
1190.8284,81.8212
1191.7926,81.5519
1192.7568,81.2931
1193.7211,81.0453
1194.6853,80.8106
1195.6495,80.5925
1196.6138,80.3942
1197.5780,80.2171
1198.5422,80.0606
1199.5065,79.9736
1200.4707,79.8413
1201.4349,79.7165
1202.3992,79.5958
1203.3634,79.4781
1204.3276,79.3645
1205.2919,79.2581
1206.2561,79.162
1207.2203,79.078
1208.1846,79.0057
1209.1488,78.943
1210.1130,78.8872
1211.0773,78.836
1212.0415,78.7883
1213.0057,78.7434
1213.9700,78.7014
1214.9342,78.6622
1215.8984,78.6258
1216.8627,78.592
1217.8269,78.5598
1218.7911,78.5261
1219.7554,78.4862
1220.7196,78.4362
1221.6838,78.374
1222.6481,78.3016
1223.6123,78.2237
1224.5765,78.1459
1225.5408,78.0716
1226.5050,78.0002
1227.4692,77.926
1228.4335,77.8398
1229.3977,77.7321
1230.3619,77.5979
1231.3262,77.4422
1232.2904,77.2834
1233.2546,77.1525
1234.2189,77.0861
1235.1831,77.1161
1236.1473,77.2611
1237.1116,77.5233
1238.0758,77.8924
1239.0400,78.3526
1240.0043,78.8863
1240.9685,79.472
1241.9327,80.0783
1242.8970,80.6618
1243.8612,81.1735
1244.8254,81.5736
1245.7897,81.845
1246.7539,81.9988
1247.7181,82.0664
1248.6824,82.0851
1249.6466,82.0836
1250.6108,82.0767
1251.5751,82.0665
1252.5393,82.0503
1253.5035,82.0257
1254.4678,81.9932
1255.4320,81.9556
1256.3962,81.9164
1257.3605,81.8795
1258.3247,81.8492
1259.2889,81.8292
1260.2532,81.8216
1261.2174,81.8252
1262.1816,81.8349
1263.1459,81.8431
1264.1101,81.8418
1265.0743,81.8244
1266.0386,81.7864
1267.0028,81.7252
1267.9670,81.6399
1268.9313,81.5317
1269.8955,81.4041
1270.8597,81.2634
1271.8240,81.1187
1272.7882,80.9804
1273.7524,80.8593
1274.7167,80.7638
1275.6809,80.6994
1276.6451,80.6683
1277.6094,80.6693
1278.5736,80.6988
1279.5378,80.7518
1280.5021,80.8226
1281.4663,80.9064
1282.4305,81.0004
1283.3948,81.1047
1284.3590,81.2222
1285.3232,81.3577
1286.2875,81.516
1287.2517,81.7
1288.2159,81.9089
1289.1802,82.1374
1290.1444,82.3774
1291.1086,82.62
1292.0729,82.8584
1293.0371,83.0884
1294.0013,83.3088
1294.9656,83.5195
1295.9298,83.7212
1296.8940,83.9143
1297.8583,84.0988
1298.8225,84.2749
1299.7867,84.4427
1300.7510,84.6027
1301.7152,84.7557
1302.6794,84.9037
1303.6437,85.0502
1304.6079,85.1987
1305.5721,85.3504
1306.5364,85.5035
1307.5006,85.6528
1308.4648,85.7932
1309.4291,85.923
1310.3933,86.0457
1311.3575,86.1678
1312.3218,86.2945
1313.2860,86.4254
1314.2502,86.5556
1315.2145,86.6792
1316.1787,86.7957
1317.1429,86.911
1318.1072,87.0342
1319.0714,87.1707
1320.0356,87.3177
1320.9999,87.4648
1321.9641,87.6014
1322.9283,87.7222
1323.8926,87.828
1324.8568,87.9239
1325.8210,88.0145
1326.7853,88.102
1327.7495,88.1864
1328.7137,88.2665
1329.6780,88.3413
1330.6422,88.4096
1331.6064,88.4667
1332.5707,88.5044
1333.5349,88.511
1334.4991,88.4768
1335.4634,88.3994
1336.4276,88.2912
1337.3918,88.1841
1338.3561,88.1237
1339.3203,88.1432
1340.2845,88.2334
1341.2488,88.3464
1342.2130,88.4311
1343.1772,88.4602
1344.1415,88.431
1345.1057,88.3545
1346.0699,88.2474
1347.0342,88.1263
1347.9984,88.0041
1348.9626,87.8863
1349.9269,87.7718
1350.8911,87.6566
1351.8553,87.5392
1352.8196,87.423
1353.7838,87.3153
1354.7480,87.222
1355.7123,87.1425
1356.6765,87.0679
1357.6407,86.9867
1358.6050,86.8916
1359.5692,86.7848
1360.5334,86.6835
1361.4977,86.6168
1362.4619,86.6042
1363.4261,86.6301
1364.3904,86.6518
1365.3546,86.6348
1366.3188,86.5695
1367.2831,86.4636
1368.2473,86.3285
1369.2115,86.1707
1370.1758,85.9893
1371.1400,85.7786
1372.1042,85.5384
1373.0685,85.2854
1374.0327,85.0558
1374.9969,84.8849
1375.9612,84.7826
1376.9254,84.7364
1377.8896,84.7348
1378.8539,84.7809
1379.8181,84.885
1380.7823,85.0506
1381.7466,85.2671
1382.7108,85.5197
1383.6750,85.8039
1384.6393,86.1312
1385.6035,86.5176
1386.5677,86.9546
1387.5320,87.3812
1388.4962,87.7049
1389.4604,87.8689
1390.4247,87.8846
1391.3889,87.8031
1392.3531,87.6795
1393.3174,87.5626
1394.2816,87.4949
1395.2458,87.4997
1396.2101,87.5615
1397.1743,87.629
1398.1385,87.6482
1399.1028,87.5907
1400.0670,87.4578
1401.0313,87.2693
1401.9955,87.0508
1402.9597,86.8282
1403.9240,86.6265
1404.8882,86.4674
1405.8524,86.3599
1406.8167,86.296
1407.7809,86.262
1408.7451,86.2526
1409.7094,86.2719
1410.6736,86.32
1411.6378,86.3841
1412.6021,86.4415
1413.5663,86.4774
1414.5305,86.4941
1415.4948,86.5061
1416.4590,86.5302
1417.4232,86.584
1418.3875,86.6721
1419.3517,86.7544
1420.3159,86.7624
1421.2802,86.6702
1422.2444,86.5104
1423.2086,86.3305
1424.1729,86.1582
1425.1371,85.9943
1426.1013,85.8225
1427.0656,85.6224
1428.0298,85.38
1428.9940,85.0978
1429.9583,84.7999
1430.9225,84.5212
1431.8867,84.2902
1432.8510,84.1167
1433.8152,83.9901
1434.7794,83.8871
1435.7437,83.79
1436.7079,83.6924
1437.6721,83.5763
1438.6364,83.4172
1439.6006,83.2203
1440.5648,83.0176
1441.5291,82.8359
1442.4933,82.6789
1443.4575,82.5327
1444.4218,82.3801
1445.3860,82.2125
1446.3502,82.0324
1447.3145,81.8473
1448.2787,81.6588
1449.2429,81.46
1450.2072,81.2482
1451.1714,81.0399
1452.1356,80.8637
1453.0999,80.7357
1454.0641,80.6391
1455.0283,80.5444
1455.9926,80.5045
1456.9568,80.6986
1457.9210,81.1275
1458.8853,81.4945
1459.8495,81.655
1460.8137,81.7098
1461.7780,81.7996
1462.7422,82.0156
1463.7064,82.4001
1464.6707,82.9367
1465.6349,83.5294
1466.5991,84.0617
1467.5634,84.501
1468.5276,84.9017
1469.4918,85.3363
1470.4561,85.8564
1471.4203,86.5067
1472.3845,87.3293
1473.3488,88.2792
1474.3130,89.1714
1475.2772,89.8455
1476.2415,90.2965
1477.2057,90.6066
1478.1699,90.8567
1479.1342,91.1023
1480.0984,91.3778
1481.0626,91.6967
1482.0269,92.0466
1482.9911,92.3933
1483.9553,92.6981
1484.9196,92.9327
1485.8838,93.0852
1486.8480,93.1704
1487.8123,93.2581
1488.7765,93.4629
1489.7407,93.8116
1490.7050,94.1678
1491.6692,94.3979
1492.6334,94.4919
1493.5977,94.5005
1494.5619,94.4544
1495.5261,94.3533
1496.4904,94.2039
1497.4546,94.0418
1498.4188,93.8847
1499.3831,93.7096
1500.3473,93.5191
1501.3115,93.3683
1502.2758,93.3141
1503.2400,93.3567
1504.2042,93.3998
1505.1685,93.2678
1506.1327,92.8991
1507.0969,92.6127
1508.0612,92.6734
1509.0254,92.8206
1509.9896,92.8448
1510.9539,92.7846
1511.9181,92.7198
1512.8823,92.688
1513.8466,92.7021
1514.8108,92.7799
1515.7750,92.9484
1516.7393,93.2204
1517.7035,93.5814
1518.6677,94.0088
1519.6320,94.4981
1520.5962,95.0521
1521.5604,95.6368
1522.5247,96.1788
1523.4889,96.6381
1524.4531,97.0502
1525.4174,97.4754
1526.3816,97.9248
1527.3458,98.35
1528.3101,98.6984
1529.2743,98.9621
1530.2385,99.1739
1531.2028,99.3773
1532.1670,99.6059
1533.1312,99.8654
1534.0955,100.123
1535.0597,100.346
1536.0239,100.539
1536.9882,100.711
1537.9524,100.791
1538.9166,100.634
1539.8809,100.238
1540.8451,99.9818
1541.8093,100.149
1542.7736,100.49
1543.7378,100.752
1544.7020,100.899
1545.6663,100.953
1546.6305,100.945
1547.5947,100.879
1548.5590,100.781
1549.5232,100.673
1550.4874,100.56
1551.4517,100.431
1552.4159,100.286
1553.3801,100.149
1554.3444,100.063
1555.3086,100.044
1556.2728,100.044
1557.2371,100.01
1558.2013,100.036
1559.1655,100.176
1560.1298,100.096
1561.0940,99.6348
1562.0582,98.9979
1563.0225,98.404
1563.9867,97.9503
1564.9509,97.6371
1565.9152,97.4101
1566.8794,97.1942
1567.8436,96.9289
1568.8079,96.6006
1569.7721,96.2387
1570.7363,95.8812
1571.7006,95.555
1572.6648,95.2654
1573.6290,94.9746
1574.5933,94.6104
1575.5575,94.1378
1576.5217,93.6237
1577.4860,93.1511
1578.4502,92.7194
1579.4144,92.3
1580.3787,91.8864
1581.3429,91.4754
1582.3071,91.0568
1583.2714,90.6234
1584.2356,90.177
1585.1998,89.7229
1586.1641,89.2629
1587.1283,88.7968
1588.0925,88.3267
1589.0568,87.8584
1590.0210,87.3986
1590.9852,86.9516
1591.9495,86.5222
1592.9137,86.1216
1593.8779,85.7676
1594.8422,85.4768
1595.8064,85.2516
1596.7706,85.077
1597.7349,84.9291
1598.6991,84.7885
1599.6633,84.648
1600.6276,84.5128
1601.5918,84.3947
1602.5560,84.3035
1603.5203,84.2407
1604.4845,84.2016
1605.4487,84.1843
1606.4130,84.1969
1607.3772,84.2549
1608.3414,84.3679
1609.3057,84.5232
1610.2699,84.6876
1611.2341,84.8358
1612.1984,84.9708
1613.1626,85.1141
1614.1268,85.2872
1615.0911,85.5113
1616.0553,85.7977
1617.0195,86.0969
1617.9838,86.3061
1618.9480,86.3908
1619.9122,86.4202
1620.8765,86.4852
1621.8407,86.6375
1622.8049,86.8775
1623.7692,87.164
1624.7334,87.4432
1625.6976,87.6932
1626.6619,87.9333
1627.6261,88.1868
1628.5903,88.4483
1629.5546,88.695
1630.5188,88.9225
1631.4830,89.1525
1632.4473,89.4011
1633.4115,89.6509
1634.3757,89.8775
1635.3400,90.1161
1636.3042,90.4062
1637.2684,90.66
1638.2327,90.7857
1639.1969,90.8158
1640.1611,90.8331
1641.1254,90.8926
1642.0896,91.0052
1643.0538,91.1386
1644.0181,91.219
1644.9823,91.1704
1645.9465,91.0099
1646.9108,90.871
1647.8750,90.858
1648.8392,90.9841
1649.8035,91.2379
1650.7677,91.5652
1651.7319,91.8327
1652.6962,91.9253
1653.6604,91.854
1654.6246,91.5827
1655.5889,91.0955
1656.5531,90.5499
1657.5173,90.1072
1658.4816,89.8197
1659.4458,89.6431
1660.4100,89.4907
1661.3743,89.2975
1662.3385,89.0594
1663.3027,88.808
1664.2670,88.5679
1665.2312,88.3476
1666.1954,88.1323
1667.1597,87.8773
1668.1239,87.5377
1669.0881,87.1343
1670.0524,86.7637
1671.0166,86.5007
1671.9808,86.3376
1672.9451,86.2275
1673.9093,86.117
1674.8735,85.9477
1675.8378,85.6718
1676.8020,85.2861
1677.7662,84.8493
1678.7305,84.4547
1679.6947,84.1767
1680.6589,84.0255
1681.6232,83.9367
1682.5874,83.817
1683.5516,83.6339
1684.5159,83.4043
1685.4801,83.0928
1686.4443,82.6807
1687.4086,82.2291
1688.3728,81.8151
1689.3370,81.4837
1690.3013,81.245
1691.2655,81.0814
1692.2297,80.9515
1693.1940,80.7928
1694.1582,80.5394
1695.1224,80.1632
1696.0867,79.7232
1697.0509,79.3654
1698.0151,79.2212
1698.9794,79.2648
1699.9436,79.3089
1700.9078,79.1817
1701.8721,78.8718
1702.8363,78.496
1703.8005,78.1923
1704.7648,78.0479
1705.7290,78.076
1706.6932,78.2207
1707.6575,78.3963
1708.6217,78.5455
1709.5859,78.6663
1710.5502,78.7883
1711.5144,78.9367
1712.4786,79.1154
1713.4429,79.3167
1714.4071,79.5556
1715.3713,79.9203
1716.3356,80.5488
1717.2998,81.4132
1718.2640,82.2133
1719.2283,82.7135
1720.1925,82.9609
1721.1567,83.1311
1722.1210,83.3593
1723.0852,83.6913
1724.0494,84.0979
1725.0137,84.5132
1725.9779,84.8796
1726.9421,85.1769
1727.9064,85.425
1728.8706,85.6645
1729.8348,85.9366
1730.7991,86.2745
1731.7633,86.7084
1732.7275,87.2559
1733.6918,87.8526
1734.6560,88.3268
1735.6202,88.5656
1736.5845,88.6366
1737.5487,88.6883
1738.5129,88.8235
1739.4772,89.0593
1740.4414,89.3453
1741.4056,89.6094
1742.3699,89.8088
1743.3341,89.9524
1744.2983,90.0795
1745.2626,90.2266
1746.2268,90.4147
1747.1910,90.664
1748.1553,91.0105
1749.1195,91.4821
1750.0837,92.0287
1751.0480,92.5178
1752.0122,92.8477
1752.9764,93.0261
1753.9407,93.131
1754.9049,93.238
1755.8691,93.3845
1756.8334,93.5706
1757.7976,93.7795
1758.7618,93.9999
1759.7261,94.2366
1760.6903,94.4989
1761.6545,94.7806
1762.6188,95.0539
1763.5830,95.2905
1764.5472,95.4872
1765.5115,95.6644
1766.4757,95.8422
1767.4399,96.022
1768.4042,96.188
1769.3684,96.3278
1770.3326,96.4598
1771.2969,96.6372
1772.2611,96.8928
1773.2253,97.1764
1774.1896,97.3994
1775.1538,97.534
1776.1180,97.6247
1777.0823,97.7302
1778.0465,97.8811
1779.0107,98.0743
1779.9750,98.2894
1780.9392,98.5075
1781.9034,98.7191
1782.8677,98.9195
1783.8319,99.0978
1784.7961,99.2356
1785.7604,99.3211
1786.7246,99.3646
1787.6888,99.3947
1788.6531,99.436
1789.6173,99.4891
1790.5815,99.5382
1791.5458,99.5777
1792.5100,99.613
1793.4742,99.6311
1794.4385,99.6156
1795.4027,99.5839
1796.3669,99.5737
1797.3312,99.6068
1798.2954,99.6769
1799.2596,99.7639
1800.2239,99.8514
1801.1881,99.93
1802.1523,99.9921
1803.1166,100.033
1804.0808,100.055
1805.0450,100.062
1806.0093,100.06
1806.9735,100.048
1807.9377,100.03
1808.9020,100.016
1809.8662,100.021
1810.8304,100.055
1811.7947,100.112
1812.7589,100.175
1813.7231,100.232
1814.6874,100.278
1815.6516,100.312
1816.6158,100.332
1817.5801,100.339
1818.5443,100.333
1819.5085,100.321
1820.4728,100.313
1821.4370,100.316
1822.4012,100.326
1823.3655,100.336
1824.3297,100.331
1825.2939,100.305
1826.2582,100.258
1827.2224,100.201
1828.1866,100.161
1829.1509,100.158
1830.1151,100.195
1831.0793,100.24
1832.0436,100.253
1833.0078,100.229
1833.9720,100.185
1834.9363,100.144
1835.9005,100.112
1836.8647,100.087
1837.8290,100.068
1838.7932,100.071
1839.7574,100.115
1840.7217,100.185
1841.6859,100.262
1842.6501,100.316
1843.6144,100.328
1844.5786,100.308
1845.5428,100.269
1846.5071,100.224
1847.4713,100.19
1848.4355,100.187
1849.3998,100.217
1850.3640,100.266
1851.3282,100.312
1852.2925,100.342
1853.2567,100.353
1854.2209,100.353
1855.1852,100.347
1856.1494,100.337
1857.1136,100.328
1858.0779,100.322
1859.0421,100.324
1860.0063,100.335
1860.9706,100.346
1861.9348,100.344
1862.8990,100.32
1863.8633,100.275
1864.8275,100.215
1865.7917,100.149
1866.7560,100.097
1867.7202,100.095
1868.6844,100.165
1869.6487,100.279
1870.6129,100.376
1871.5771,100.424
1872.5414,100.435
1873.5056,100.435
1874.4698,100.437
1875.4341,100.445
1876.3983,100.454
1877.3625,100.46
1878.3268,100.462
1879.2910,100.462
1880.2552,100.458
1881.2195,100.45
1882.1837,100.436
1883.1479,100.418
1884.1122,100.401
1885.0764,100.39
1886.0406,100.388
1887.0049,100.394
1887.9691,100.405
1888.9333,100.416
1889.8976,100.42
1890.8618,100.413
1891.8260,100.393
1892.7903,100.368
1893.7545,100.348
1894.7188,100.346
1895.6830,100.362
1896.6472,100.392
1897.6115,100.421
1898.5757,100.44
1899.5399,100.444
1900.5042,100.436
1901.4684,100.424
1902.4326,100.411
1903.3969,100.397
1904.3611,100.379
1905.3253,100.352
1906.2896,100.316
1907.2538,100.279
1908.2180,100.253
1909.1823,100.251
1910.1465,100.272
1911.1107,100.306
1912.0750,100.339
1913.0392,100.366
1914.0034,100.389
1914.9677,100.412
1915.9319,100.429
1916.8961,100.434
1917.8604,100.417
1918.8246,100.376
1919.7888,100.315
1920.7531,100.253
1921.7173,100.213
1922.6815,100.211
1923.6458,100.246
1924.6100,100.298
1925.5742,100.348
1926.5385,100.381
1927.5027,100.398
1928.4669,100.403
1929.4312,100.402
1930.3954,100.4
1931.3596,100.397
1932.3239,100.395
1933.2881,100.397
1934.2523,100.401
1935.2166,100.406
1936.1808,100.408
1937.1450,100.404
1938.1093,100.393
1939.0735,100.376
1940.0377,100.354
1941.0020,100.331
1941.9662,100.313
1942.9304,100.308
1943.8947,100.316
1944.8589,100.334
1945.8231,100.36
1946.7874,100.39
1947.7516,100.423
1948.7158,100.452
1949.6801,100.472
1950.6443,100.479
1951.6085,100.476
1952.5728,100.469
1953.5370,100.467
1954.5012,100.472
1955.4655,100.485
1956.4297,100.501
1957.3939,100.515
1958.3582,100.526
1959.3224,100.532
1960.2866,100.533
1961.2509,100.529
1962.2151,100.517
1963.1793,100.498
1964.1436,100.473
1965.1078,100.451
1966.0720,100.442
1967.0363,100.452
1968.0005,100.482
1968.9647,100.52
1969.9290,100.555
1970.8932,100.579
1971.8574,100.591
1972.8217,100.596
1973.7859,100.597
1974.7501,100.598
1975.7144,100.6
1976.6786,100.603
1977.6428,100.605
1978.6071,100.606
1979.5713,100.607
1980.5355,100.608
1981.4998,100.609
1982.4640,100.609
1983.4282,100.606
1984.3925,100.598
1985.3567,100.585
1986.3209,100.568
1987.2852,100.548
1988.2494,100.527
1989.2136,100.508
1990.1779,100.495
1991.1421,100.492
1992.1063,100.501
1993.0706,100.517
1994.0348,100.535
1994.9990,100.549
1995.9633,100.555
1996.9275,100.554
1997.8917,100.551
1998.8560,100.546
1999.8202,100.544
2000.7844,100.546
2001.7487,100.549
2002.7129,100.552
2003.6771,100.55
2004.6414,100.543
2005.6056,100.531
2006.5698,100.518
2007.5341,100.508
2008.4983,100.502
2009.4625,100.502
2010.4268,100.504
2011.3910,100.504
2012.3552,100.497
2013.3195,100.481
2014.2837,100.458
2015.2479,100.434
2016.2122,100.417
2017.1764,100.412
2018.1406,100.42
2019.1049,100.436
2020.0691,100.452
2021.0333,100.463
2021.9976,100.47
2022.9618,100.473
2023.9260,100.475
2024.8903,100.478
2025.8545,100.483
2026.8187,100.487
2027.7830,100.49
2028.7472,100.491
2029.7114,100.49
2030.6757,100.486
2031.6399,100.482
2032.6041,100.479
2033.5684,100.479
2034.5326,100.482
2035.4968,100.487
2036.4611,100.491
2037.4253,100.489
2038.3895,100.481
2039.3538,100.47
2040.3180,100.46
2041.2822,100.457
2042.2465,100.464
2043.2107,100.477
2044.1749,100.492
2045.1392,100.505
2046.1034,100.513
2047.0676,100.517
2048.0320,100.516
2048.9961,100.515
2049.9604,100.513
2050.9246,100.513
2051.8889,100.515
2052.8530,100.519
2053.8174,100.523
2054.7815,100.526
2055.7458,100.528
2056.7100,100.529
2057.6743,100.529
2058.6384,100.527
2059.6028,100.522
2060.5669,100.513
2061.5313,100.5
2062.4954,100.486
2063.4597,100.475
2064.4238,100.472
2065.3882,100.48
2066.3523,100.495
2067.3167,100.514
2068.2808,100.53
2069.2451,100.541
2070.2092,100.548
2071.1736,100.55
2072.1377,100.551
2073.1021,100.551
2074.0662,100.549
2075.0305,100.546
2075.9946,100.543
2076.9590,100.541
2077.9231,100.539
2078.8875,100.539
2079.8516,100.54
2080.8159,100.542
2081.7800,100.546
2082.7444,100.55
2083.7085,100.554
2084.6729,100.557
2085.6370,100.556
2086.6013,100.553
2087.5654,100.548
2088.5298,100.544
2089.4939,100.541
2090.4583,100.541
2091.4224,100.544
2092.3867,100.548
2093.3508,100.554
2094.3152,100.562
2095.2793,100.57
2096.2437,100.577
2097.2078,100.581
2098.1721,100.582
2099.1362,100.579
2100.1006,100.572
2101.0647,100.565
2102.0291,100.56
2102.9932,100.557
2103.9575,100.557
2104.9216,100.56
2105.8860,100.564
2106.8501,100.568
2107.8145,100.569
2108.7786,100.567
2109.7429,100.561
2110.7070,100.553
2111.6714,100.544
2112.6355,100.539
2113.5999,100.538
2114.5640,100.541
2115.5283,100.549
2116.4924,100.557
2117.4568,100.563
2118.4209,100.566
2119.3853,100.565
2120.3494,100.563
2121.3137,100.561
2122.2778,100.56
2123.2422,100.559
2124.2063,100.557
2125.1707,100.553
2126.1348,100.55
2127.0991,100.549
2128.0632,100.552
2129.0276,100.559
2129.9917,100.568
2130.9561,100.575
2131.9202,100.577
2132.8845,100.573
2133.8486,100.563
2134.8130,100.552
2135.7771,100.545
2136.7415,100.543
2137.7056,100.548
2138.6699,100.558
2139.6340,100.569
2140.5984,100.579
2141.5625,100.585
2142.5269,100.588
2143.4910,100.589
2144.4553,100.589
2145.4194,100.589
2146.3838,100.59
2147.3479,100.592
2148.3123,100.593
2149.2764,100.594
2150.2407,100.592
2151.2048,100.589
2152.1692,100.585
2153.1333,100.581
2154.0977,100.578
2155.0618,100.579
2156.0261,100.583
2156.9902,100.59
2157.9546,100.597
2158.9187,100.603
2159.8831,100.607
2160.8472,100.609
2161.8115,100.608
2162.7756,100.607
2163.7400,100.606
2164.7041,100.604
2165.6685,100.602
2166.6326,100.6
2167.5969,100.597
2168.5610,100.594
2169.5254,100.591
2170.4895,100.588
2171.4539,100.587
2172.4180,100.587
2173.3823,100.588
2174.3464,100.589
2175.3108,100.589
2176.2749,100.588
2177.2393,100.586
2178.2034,100.583
2179.1677,100.578
2180.1318,100.574
2181.0962,100.569
2182.0603,100.565
2183.0247,100.561
2183.9888,100.559
2184.9531,100.559
2185.9172,100.561
2186.8816,100.564
2187.8457,100.567
2188.8101,100.569
2189.7742,100.57
2190.7385,100.569
2191.7026,100.567
2192.6670,100.563
2193.6311,100.56
2194.5955,100.556
2195.5596,100.552
2196.5239,100.548
2197.4880,100.543
2198.4524,100.537
2199.4165,100.53
2200.3809,100.524
2201.3450,100.519
2202.3093,100.516
2203.2734,100.513
2204.2378,100.512
2205.2019,100.512
2206.1663,100.512
2207.1304,100.512
2208.0947,100.511
2209.0588,100.51
2210.0232,100.506
2210.9873,100.501
2211.9517,100.493
2212.9158,100.483
2213.8801,100.474
2214.8442,100.466
2215.8086,100.461
2216.7727,100.458
2217.7371,100.457
2218.7012,100.455
2219.6655,100.452
2220.6296,100.447
2221.5940,100.442
2222.5581,100.437
2223.5225,100.432
2224.4866,100.429
2225.4509,100.425
2226.4150,100.421
2227.3794,100.415
2228.3435,100.406
2229.3079,100.395
2230.2720,100.381
2231.2363,100.367
2232.2004,100.354
2233.1648,100.344
2234.1289,100.338
2235.0933,100.336
2236.0574,100.334
2237.0217,100.332
2237.9858,100.326
2238.9502,100.316
2239.9143,100.302
2240.8787,100.286
2241.8428,100.271
2242.8071,100.257
2243.7712,100.246
2244.7356,100.237
2245.6997,100.227
2246.6641,100.216
2247.6282,100.203
2248.5925,100.189
2249.5566,100.175
2250.5210,100.159
2251.4851,100.142
2252.4495,100.123
2253.4136,100.102
2254.3779,100.078
2255.3420,100.053
2256.3064,100.028
2257.2705,100.005
2258.2349,99.9858
2259.1990,99.9704
2260.1633,99.958
2261.1274,99.9464
2262.0918,99.9337
2263.0559,99.9189
2264.0203,99.9024
2264.9844,99.8861
2265.9487,99.8719
2266.9128,99.8606
2267.8772,99.8518
2268.8413,99.8439
2269.8057,99.8358
2270.7698,99.8272
2271.7341,99.819
2272.6982,99.8124
2273.6626,99.8085
2274.6267,99.8076
2275.5911,99.81
2276.5552,99.8158
2277.5195,99.8255
2278.4836,99.8395
2279.4480,99.8566
2280.4121,99.8738
2281.3765,99.8862
2282.3406,99.8882
2283.3049,99.8753
2284.2690,99.8458
2285.2334,99.8011
2286.1975,99.7459
2287.1619,99.6861
2288.1260,99.6267
2289.0903,99.5695
2290.0544,99.5133
2291.0188,99.4566
2291.9829,99.3997
2292.9473,99.3463
2293.9114,99.3021
2294.8757,99.2716
2295.8398,99.2562
2296.8042,99.2538
2297.7683,99.2621
2298.7327,99.2814
2299.6968,99.315
2300.6611,99.367
2301.6252,99.4363
2302.5896,99.5149
2303.5537,99.5875
2304.5181,99.6384
2305.4822,99.659
2306.4465,99.6551
2307.4106,99.6466
2308.3750,99.6608
2309.3391,99.7193
2310.3035,99.8268
2311.2676,99.9673
2312.2319,100.112
2313.1960,100.234
2314.1604,100.325
2315.1245,100.393
2316.0889,100.463
2317.0530,100.557
2318.0173,100.681
2318.9814,100.819
2319.9458,100.926
2320.9099,100.946
2321.8743,100.831
2322.8384,100.57
2323.8027,100.206
2324.7668,99.8277
2325.7312,99.5293
2326.6953,99.3778
2327.6597,99.3825
2328.6238,99.4905
2329.5881,99.6064
2330.5522,99.635
2331.5166,99.5287
2332.4807,99.3086
2333.4451,99.0464
2334.4092,98.8204
2335.3735,98.6756
2336.3376,98.608
2337.3020,98.5729
2338.2661,98.5116
2339.2305,98.3849
2340.1946,98.2048
2341.1589,98.0669
2342.1230,98.1113
2343.0874,98.4349
2344.0515,98.9225
2345.0159,99.2579
2345.9800,99.2307
2346.9443,98.9276
2347.9084,98.6031
2348.8728,98.471
2349.8369,98.5966
2350.8013,98.8845
2351.7654,99.1332
2352.7297,99.1562
2353.6938,98.9201
2354.6582,98.5551
2355.6223,98.1917
2356.5867,97.8425
2357.5508,97.475
2358.5151,97.1257
2359.4792,96.8917
2360.4436,96.8349
2361.4077,96.9408
2362.3721,97.1698
2363.3362,97.5066
2364.3005,97.9483
2365.2646,98.4677
2366.2290,99.0109
2367.1931,99.5269
2368.1575,99.9917
2369.1216,100.404
2370.0859,100.769
2371.0500,101.084
2372.0144,101.338
2372.9785,101.516
2373.9429,101.603
2374.9070,101.59
2375.8713,101.479
2376.8354,101.283
2377.7998,101.026
2378.7639,100.742
2379.7283,100.462
2380.6924,100.217
2381.6567,100.026
2382.6208,99.8997
2383.5852,99.8343
2384.5493,99.8184
2385.5137,99.8357
2386.4778,99.8691
2387.4421,99.9051
2388.4063,99.9351
2389.3706,99.9559
2390.3347,99.9683
2391.2991,99.975
2392.2632,99.979
2393.2275,99.9823
2394.1917,99.9853
2395.1560,99.9876
2396.1201,99.9886
2397.0845,99.9888
2398.0486,99.9885
2399.0129,99.9889
2399.9771,99.9909
2400.9414,99.9935
2401.9055,99.9958
2402.8699,99.9966
2403.8340,99.9963
2404.7983,99.9961
2405.7625,99.9972
2406.7268,100
2407.6909,100.005
2408.6553,100.009
2409.6194,100.013
2410.5837,100.016
2411.5479,100.02
2412.5122,100.023
2413.4763,100.027
2414.4407,100.03
2415.4048,100.032
2416.3691,100.034
2417.3333,100.038
2418.2976,100.044
2419.2617,100.052
2420.2261,100.059
2421.1902,100.062
2422.1545,100.06
2423.1187,100.057
2424.0830,100.055
2425.0471,100.058
2426.0115,100.066
2426.9756,100.077
2427.9399,100.087
2428.9041,100.093
2429.8684,100.095
2430.8325,100.093
2431.7969,100.089
2432.7610,100.086
2433.7253,100.084
2434.6895,100.083
2435.6538,100.084
2436.6179,100.087
2437.5823,100.092
2438.5464,100.099
2439.5107,100.106
2440.4749,100.113
2441.4392,100.118
2442.4033,100.12
2443.3677,100.12
2444.3318,100.119
2445.2961,100.118
2446.2603,100.117
2447.2246,100.115
2448.1887,100.111
2449.1531,100.106
2450.1172,100.1
2451.0815,100.096
2452.0457,100.095
2453.0100,100.096
2453.9741,100.101
2454.9385,100.106
2455.9026,100.11
2456.8669,100.112
2457.8311,100.11
2458.7954,100.107
2459.7595,100.103
2460.7239,100.101
2461.6880,100.101
2462.6523,100.104
2463.6165,100.109
2464.5808,100.113
2465.5449,100.117
2466.5093,100.119
2467.4734,100.119
2468.4377,100.116
2469.4019,100.11
2470.3662,100.102
2471.3303,100.093
2472.2947,100.087
2473.2588,100.086
2474.2231,100.089
2475.1873,100.096
2476.1516,100.102
2477.1157,100.106
2478.0801,100.106
2479.0442,100.104
2480.0085,100.103
2480.9727,100.105
2481.9370,100.109
2482.9011,100.115
2483.8655,100.118
2484.8296,100.119
2485.7939,100.118
2486.7581,100.118
2487.7224,100.119
2488.6865,100.124
2489.6509,100.129
2490.6150,100.133
2491.5793,100.132
2492.5435,100.128
2493.5078,100.122
2494.4719,100.117
2495.4363,100.116
2496.4004,100.12
2497.3647,100.125
2498.3289,100.129
2499.2932,100.129
2500.2573,100.125
2501.2217,100.12
2502.1858,100.115
2503.1501,100.113
2504.1143,100.114
2505.0786,100.115
2506.0427,100.115
2507.0071,100.114
2507.9712,100.11
2508.9355,100.105
2509.8997,100.1
2510.8640,100.095
2511.8281,100.092
2512.7925,100.091
2513.7566,100.091
2514.7209,100.092
2515.6851,100.095
2516.6494,100.098
2517.6135,100.101
2518.5779,100.101
2519.5420,100.098
2520.5063,100.092
2521.4705,100.083
2522.4348,100.075
2523.3989,100.069
2524.3633,100.066
2525.3274,100.068
2526.2917,100.071
2527.2559,100.074
2528.2202,100.076
2529.1843,100.075
2530.1487,100.071
2531.1128,100.064
2532.0771,100.057
2533.0413,100.049
2534.0056,100.043
2534.9697,100.04
2535.9341,100.041
2536.8982,100.045
2537.8625,100.05
2538.8267,100.054
2539.7910,100.056
2540.7551,100.058
2541.7195,100.059
2542.6836,100.062
2543.6479,100.065
2544.6121,100.069
2545.5764,100.072
2546.5405,100.072
2547.5049,100.068
2548.4690,100.059
2549.4333,100.048
2550.3975,100.038
2551.3618,100.03
2552.3259,100.028
2553.2903,100.031
2554.2544,100.038
2555.2188,100.046
2556.1829,100.055
2557.1472,100.061
2558.1113,100.066
2559.0757,100.069
2560.0398,100.072
2561.0042,100.074
2561.9683,100.074
2562.9326,100.074
2563.8967,100.072
2564.8611,100.069
2565.8252,100.069
2566.7896,100.072
2567.7537,100.079
2568.7180,100.088
2569.6821,100.096
2570.6465,100.1
2571.6106,100.099
2572.5750,100.095
2573.5391,100.09
2574.5034,100.086
2575.4675,100.085
2576.4319,100.086
2577.3960,100.088
2578.3604,100.092
2579.3245,100.097
2580.2888,100.102
2581.2529,100.107
2582.2173,100.112
2583.1814,100.115
2584.1458,100.117
2585.1099,100.118
2586.0742,100.118
2587.0383,100.119
2588.0027,100.119
2588.9668,100.117
2589.9312,100.115
2590.8953,100.113
2591.8596,100.111
2592.8237,100.111
2593.7881,100.112
2594.7522,100.113
2595.7166,100.113
2596.6807,100.114
2597.6450,100.113
2598.6091,100.114
2599.5735,100.114
2600.5376,100.114
2601.5020,100.115
2602.4661,100.116
2603.4304,100.119
2604.3945,100.124
2605.3589,100.129
2606.3230,100.135
2607.2874,100.139
2608.2515,100.139
2609.2158,100.137
2610.1799,100.132
2611.1443,100.126
2612.1084,100.122
2613.0728,100.121
2614.0369,100.123
2615.0012,100.128
2615.9653,100.133
2616.9297,100.136
2617.8938,100.138
2618.8582,100.137
2619.8223,100.135
2620.7866,100.133
2621.7507,100.132
2622.7151,100.134
2623.6792,100.136
2624.6436,100.141
2625.6077,100.147
2626.5720,100.153
2627.5361,100.159
2628.5005,100.165
2629.4646,100.169
2630.4290,100.17
2631.3931,100.169
2632.3574,100.167
2633.3215,100.166
2634.2859,100.169
2635.2500,100.176
2636.2144,100.186
2637.1785,100.196
2638.1428,100.203
2639.1069,100.206
2640.0713,100.207
2641.0354,100.208
2641.9998,100.211
2642.9639,100.215
2643.9282,100.219
2644.8923,100.222
2645.8567,100.224
2646.8208,100.225
2647.7852,100.225
2648.7493,100.225
2649.7136,100.224
2650.6777,100.221
2651.6421,100.219
2652.6062,100.218
2653.5706,100.22
2654.5347,100.224
2655.4990,100.231
2656.4631,100.238
2657.4275,100.242
2658.3916,100.245
2659.3560,100.246
2660.3201,100.249
2661.2844,100.253
2662.2485,100.26
2663.2129,100.269
2664.1770,100.28
2665.1414,100.29
2666.1055,100.301
2667.0698,100.31
2668.0339,100.318
2668.9983,100.327
2669.9624,100.337
2670.9268,100.348
2671.8909,100.36
2672.8552,100.373
2673.8193,100.385
2674.7837,100.398
2675.7478,100.411
2676.7122,100.421
2677.6763,100.428
2678.6406,100.431
2679.6047,100.43
2680.5691,100.427
2681.5332,100.424
2682.4976,100.425
2683.4617,100.428
2684.4260,100.432
2685.3901,100.435
2686.3545,100.436
2687.3186,100.435
2688.2830,100.436
2689.2471,100.441
2690.2114,100.45
2691.1755,100.461
2692.1399,100.473
2693.1040,100.48
2694.0684,100.483
2695.0325,100.48
2695.9968,100.475
2696.9609,100.469
2697.9253,100.464
2698.8894,100.461
2699.8538,100.46
2700.8179,100.459
2701.7822,100.458
2702.7463,100.456
2703.7107,100.452
2704.6748,100.447
2705.6392,100.441
2706.6033,100.434
2707.5676,100.429
2708.5317,100.426
2709.4961,100.425
2710.4602,100.425
2711.4246,100.425
2712.3887,100.422
2713.3530,100.415
2714.3171,100.403
2715.2815,100.388
2716.2456,100.371
2717.2100,100.354
2718.1741,100.339
2719.1384,100.328
2720.1025,100.321
2721.0669,100.316
2722.0310,100.312
2722.9954,100.305
2723.9595,100.293
2724.9238,100.277
2725.8879,100.259
2726.8523,100.241
2727.8164,100.227
2728.7808,100.218
2729.7449,100.215
2730.7092,100.215
2731.6733,100.217
2732.6377,100.22
2733.6018,100.221
2734.5662,100.221
2735.5303,100.218
2736.4946,100.214
2737.4587,100.209
2738.4231,100.207
2739.3872,100.212
2740.3516,100.225
2741.3157,100.246
2742.2800,100.272
2743.2441,100.298
2744.2085,100.323
2745.1726,100.342
2746.1370,100.356
2747.1011,100.366
2748.0654,100.37
2749.0295,100.37
2749.9939,100.368
2750.9580,100.367
2751.9224,100.37
2752.8865,100.377
2753.8508,100.387
2754.8149,100.397
2755.7793,100.402
2756.7434,100.399
2757.7078,100.388
2758.6719,100.373
2759.6362,100.356
2760.6003,100.342
2761.5647,100.331
2762.5288,100.323
2763.4932,100.316
2764.4573,100.309
2765.4216,100.301
2766.3857,100.291
2767.3501,100.282
2768.3142,100.274
2769.2786,100.269
2770.2427,100.265
2771.2070,100.258
2772.1711,100.245
2773.1355,100.223
2774.0996,100.194
2775.0640,100.16
2776.0281,100.126
2776.9924,100.092
2777.9565,100.059
2778.9209,100.025
2779.8850,99.9877
2780.8494,99.9489
2781.8135,99.9103
2782.7778,99.8748
2783.7419,99.8438
2784.7063,99.8171
2785.6704,99.7931
2786.6348,99.77
2787.5989,99.7463
2788.5632,99.7213
2789.5273,99.6949
2790.4917,99.6673
2791.4558,99.6391
2792.4202,99.6109
2793.3843,99.5834
2794.3486,99.5567
2795.3127,99.5303
2796.2771,99.503
2797.2412,99.4735
2798.2056,99.4412
2799.1697,99.406
2800.1340,99.3682
2801.0981,99.3282
2802.0625,99.2864
2803.0266,99.2429
2803.9910,99.1979
2804.9551,99.1517
2805.9194,99.1045
2806.8835,99.056
2807.8479,99.0047
2808.8120,98.9486
2809.7764,98.8857
2810.7405,98.8151
2811.7048,98.7373
2812.6689,98.6546
2813.6333,98.57
2814.5974,98.486
2815.5618,98.4029
2816.5259,98.3191
2817.4902,98.2308
2818.4543,98.134
2819.4187,98.0257
2820.3828,97.9047
2821.3472,97.7719
2822.3113,97.6295
2823.2756,97.4802
2824.2397,97.3263
2825.2041,97.1696
2826.1682,97.0107
2827.1326,96.8481
2828.0967,96.6786
2829.0610,96.4977
2830.0251,96.3011
2830.9895,96.0863
2831.9536,95.8537
2832.9180,95.6067
2833.8821,95.3491
2834.8464,95.0833
2835.8105,94.8087
2836.7749,94.5225
2837.7390,94.221
2838.7034,93.9023
2839.6675,93.5673
2840.6318,93.2189
2841.5959,92.8594
2842.5603,92.4896
2843.5244,92.1085
2844.4888,91.7159
2845.4529,91.3158
2846.4172,90.9179
2847.3813,90.5361
2848.3457,90.1837
2849.3098,89.8686
2850.2742,89.5905
2851.2383,89.3427
2852.2026,89.1167
2853.1667,88.9065
2854.1311,88.7105
2855.0952,88.5297
2856.0596,88.3642
2857.0237,88.2103
2857.9880,88.0612
2858.9521,87.9093
2859.9165,87.7498
2860.8806,87.5815
2861.8450,87.4063
2862.8091,87.2269
2863.7734,87.0456
2864.7375,86.8644
2865.7019,86.6864
2866.6660,86.5171
2867.6304,86.3635
2868.5945,86.2331
2869.5588,86.1317
2870.5229,86.0617
2871.4873,86.0223
2872.4514,86.0099
2873.4158,86.0192
2874.3799,86.0436
2875.3442,86.076
2876.3083,86.1092
2877.2727,86.1364
2878.2368,86.1527
2879.2012,86.1559
2880.1653,86.1474
2881.1296,86.1312
2882.0938,86.1122
2883.0581,86.0952
2884.0222,86.0824
2884.9866,86.0737
2885.9507,86.0658
2886.9150,86.0529
2887.8792,86.0282
2888.8435,85.9861
2889.8076,85.9249
2890.7720,85.8481
2891.7361,85.7633
2892.7004,85.6769
2893.6646,85.5886
2894.6289,85.4887
2895.5930,85.3619
2896.5574,85.1965
2897.5215,84.9936
2898.4858,84.7705
2899.4500,84.5544
2900.4143,84.3701
2901.3784,84.2277
2902.3428,84.1189
2903.3069,84.0219
2904.2712,83.9127
2905.2354,83.7739
2906.1997,83.599
2907.1638,83.3898
2908.1282,83.1521
2909.0923,82.8925
2910.0566,82.6176
2911.0208,82.3351
2911.9851,82.0533
2912.9492,81.7797
2913.9136,81.5194
2914.8777,81.2743
2915.8420,81.0442
2916.8062,80.8282
2917.7705,80.6272
2918.7346,80.4435
2919.6990,80.2813
2920.6631,80.1454
2921.6274,80.0402
2922.5916,79.9683
2923.5559,79.9301
2924.5200,79.9238
2925.4844,79.9468
2926.4485,79.9965
2927.4128,80.0711
2928.3770,80.17
2929.3413,80.2927
2930.3054,80.4389
2931.2698,80.6077
2932.2339,80.7979
2933.1982,81.0076
2934.1624,81.2342
2935.1267,81.4737
2936.0908,81.7214
2937.0552,81.9718
2938.0193,82.2195
2938.9836,82.46
2939.9478,82.6902
2940.9121,82.9089
2941.8762,83.116
2942.8406,83.3116
2943.8047,83.4936
2944.7690,83.6571
2945.7332,83.7943
2946.6975,83.8975
2947.6616,83.962
2948.6260,83.9888
2949.5901,83.9846
2950.5544,83.9589
2951.5186,83.9209
2952.4829,83.8771
2953.4470,83.8314
2954.4114,83.7866
2955.3755,83.747
2956.3398,83.7186
2957.3040,83.7081
2958.2683,83.7208
2959.2324,83.7583
2960.1968,83.8183
2961.1609,83.8959
2962.1252,83.9864
2963.0894,84.0882
2964.0537,84.203
2965.0178,84.334
2965.9822,84.4838
2966.9463,84.6523
2967.9106,84.8378
2968.8748,85.0393
2969.8391,85.2588
2970.8032,85.5012
2971.7676,85.7717
2972.7317,86.0712
2973.6960,86.395
2974.6602,86.7338
2975.6245,87.0774
2976.5886,87.419
2977.5530,87.7569
2978.5171,88.0929
2979.4814,88.4295
2980.4456,88.7655
2981.4099,89.0944
2982.3740,89.4044
2983.3384,89.6844
2984.3025,89.9303
2985.2668,90.1522
2986.2310,90.3749
2987.1953,90.631
2988.1594,90.9466
2989.1238,91.3274
2990.0879,91.754
2991.0522,92.1885
2992.0164,92.5914
2992.9807,92.9384
2993.9448,93.228
2994.9092,93.4779
2995.8733,93.7119
2996.8376,93.9474
2997.8018,94.1898
2998.7661,94.4351
2999.7302,94.6758
3000.6946,94.9077
3001.6587,95.1309
3002.6230,95.3489
3003.5872,95.5657
3004.5515,95.7825
3005.5156,95.9978
3006.4800,96.2072
3007.4441,96.4052
3008.4084,96.5876
3009.3726,96.7539
3010.3369,96.9079
3011.3010,97.0562
3012.2654,97.2048
3013.2295,97.3555
3014.1938,97.5052
3015.1580,97.6475
3016.1223,97.7772
3017.0864,97.8928
3018.0508,97.9965
3019.0149,98.0922
3019.9792,98.1831
3020.9434,98.2705
3021.9077,98.3547
3022.8718,98.4355
3023.8362,98.5126
3024.8003,98.5847
3025.7646,98.6492
3026.7288,98.7035
3027.6931,98.7466
3028.6572,98.7819
3029.6216,98.8161
3030.5857,98.8567
3031.5500,98.9081
3032.5142,98.9693
3033.4785,99.0346
3034.4426,99.0974
3035.4070,99.1531
3036.3711,99.2008
3037.3354,99.242
3038.2996,99.2784
3039.2639,99.2822
3040.2280,99.276
3041.1924,99.2615
3042.1565,99.2371
3043.1208,99.2027
3044.0850,99.1609
3045.0493,99.1165
3046.0134,99.0752
3046.9778,99.0411
3047.9419,99.0149
3048.9063,98.993
3049.8704,98.9693
3050.8347,98.9381
3051.7988,98.8975
3052.7632,98.8496
3053.7273,98.8
3054.6917,98.755
3055.6558,98.7188
3056.6201,98.6927
3057.5842,98.6743
3058.5486,98.6581
3059.5127,98.6372
3060.4771,98.6051
3061.4412,98.5587
3062.4055,98.5002
3063.3696,98.4373
3064.3340,98.3803
3065.2981,98.3376
3066.2625,98.3111
3067.2266,98.2957
3068.1909,98.2829
3069.1550,98.2657
3070.1194,98.2415
3071.0835,98.212
3072.0479,98.1799
3073.0120,98.1455
3073.9763,98.1064
3074.9404,98.0594
3075.9048,98.0046
3076.8689,97.9467
3077.8333,97.8939
3078.7974,97.8535
3079.7617,97.8274
3080.7258,97.8113
3081.6902,97.7968
3082.6543,97.7763
3083.6187,97.7468
3084.5828,97.71
3085.5471,97.6702
3086.5112,97.6305
3087.4756,97.5903
3088.4397,97.5461
3089.4041,97.4936
3090.3682,97.4307
3091.3325,97.3588
3092.2966,97.2823
3093.2610,97.2064
3094.2251,97.1344
3095.1895,97.0672
3096.1536,97.0033
3097.1179,96.9407
3098.0820,96.8784
3099.0464,96.817
3100.0105,96.758
3100.9749,96.7019
3101.9390,96.648
3102.9033,96.5946
3103.8674,96.5401
3104.8318,96.4843
3105.7959,96.428
3106.7603,96.3718
3107.7244,96.3145
3108.6887,96.2533
3109.6528,96.1854
3110.6172,96.1101
3111.5813,96.0293
3112.5457,95.9475
3113.5098,95.8689
3114.4741,95.7954
3115.4382,95.7262
3116.4026,95.659
3117.3667,95.5922
3118.3311,95.5264
3119.2952,95.4637
3120.2595,95.406
3121.2236,95.353
3122.1880,95.3024
3123.1521,95.2511
3124.1165,95.1966
3125.0806,95.1386
3126.0449,95.0773
3127.0090,95.0127
3127.9734,94.9438
3128.9375,94.8692
3129.9019,94.7901
3130.8660,94.7105
3131.8303,94.6367
3132.7944,94.5741
3133.7588,94.5231
3134.7229,94.4784
3135.6873,94.4314
3136.6514,94.3752
3137.6157,94.3079
3138.5798,94.2335
3139.5442,94.1589
3140.5083,94.0892
3141.4727,94.0249
3142.4368,93.9616
3143.4011,93.8935
3144.3652,93.8172
3145.3296,93.7339
3146.2937,93.6484
3147.2581,93.5668
3148.2222,93.4926
3149.1865,93.4256
3150.1506,93.3623
3151.1150,93.2979
3152.0791,93.2289
3153.0435,93.1548
3154.0076,93.0773
3154.9719,92.9988
3155.9360,92.9213
3156.9004,92.8447
3157.8645,92.7683
3158.8289,92.6909
3159.7930,92.6123
3160.7573,92.533
3161.7214,92.4542
3162.6858,92.3764
3163.6499,92.3002
3164.6143,92.2261
3165.5784,92.1548
3166.5427,92.0875
3167.5068,92.0244
3168.4712,91.9637
3169.4353,91.9555
3170.3997,91.8856
3171.3638,91.8043
3172.3281,91.7111
3173.2922,91.6103
3174.2566,91.5087
3175.2207,91.4139
3176.1851,91.3308
3177.1492,91.2602
3178.1135,91.1985
3179.0776,91.1405
3180.0420,91.0812
3181.0061,91.019
3181.9705,90.955
3182.9346,90.8919
3183.8989,90.8313
3184.8630,90.7719
3185.8274,90.7101
3186.7915,90.6422
3187.7559,90.5669
3188.7200,90.4865
3189.6843,90.4059
3190.6484,90.3299
3191.6128,90.2603
3192.5769,90.1954
3193.5413,90.1311
3194.5054,90.0637
3195.4697,89.9916
3196.4338,89.9161
3197.3982,89.84
3198.3623,89.7665
3199.3267,89.6979
3200.2908,89.6355
3201.2551,89.5795
3202.2192,89.528
3203.1836,89.4772
3204.1477,89.4224
3205.1121,89.3599
3206.0762,89.289
3207.0405,89.2129
3208.0046,89.1364
3208.9690,89.0639
3209.9331,88.9967
3210.8975,88.9335
3211.8616,88.8723
3212.8259,88.8121
3213.7900,88.754
3214.7544,88.6995
3215.7185,88.6486
3216.6829,88.5993
3217.6470,88.5482
3218.6113,88.493
3219.5754,88.434
3220.5398,88.3736
3221.5039,88.3151
3222.4683,88.26
3223.4324,88.2081
3224.3967,88.157
3225.3608,88.1045
3226.3252,88.0495
3227.2893,87.9931
3228.2537,87.9381
3229.2178,87.8874
3230.1821,87.8422
3231.1462,87.8013
3232.1106,87.7612
3233.0747,87.7179
3234.0391,87.6687
3235.0032,87.6131
3235.9675,87.5537
3236.9316,87.4937
3237.8960,87.4359
3238.8601,87.3811
3239.8245,87.3277
3240.7886,87.2736
3241.7529,87.2181
3242.7170,87.1629
3243.6814,87.1118
3244.6455,87.0688
3245.6099,87.0348
3246.5740,87.0062
3247.5383,86.9762
3248.5024,86.9377
3249.4668,86.8868
3250.4309,86.8242
3251.3953,86.755
3252.3594,86.6862
3253.3237,86.6238
3254.2878,86.5711
3255.2522,86.5282
3256.2163,86.4936
3257.1807,86.4654
3258.1448,86.4416
3259.1091,86.4187
3260.0732,86.3927
3261.0376,86.3589
3262.0017,86.3153
3262.9661,86.2636
3263.9302,86.2088
3264.8945,86.157
3265.8586,86.1112
3266.8230,86.0697
3267.7871,86.0273
3268.7515,85.9787
3269.7156,85.9225
3270.6799,85.862
3271.6440,85.8034
3272.6084,85.752
3273.5725,85.7088
3274.5369,85.6713
3275.5010,85.6357
3276.4653,85.6005
3277.4294,85.567
3278.3938,85.5379
3279.3579,85.5137
3280.3223,85.4918
3281.2864,85.4674
3282.2507,85.4368
3283.2148,85.3989
3284.1792,85.3561
3285.1433,85.3109
3286.1077,85.2646
3287.0718,85.2169
3288.0361,85.1677
3289.0002,85.1196
3289.9646,85.0778
3290.9287,85.0475
3291.8931,85.0304
3292.8572,85.0225
3293.8215,85.0151
3294.7856,84.9995
3295.7500,84.9704
3296.7141,84.9286
3297.6785,84.8796
3298.6426,84.8308
3299.6069,84.7881
3300.5710,84.7544
3301.5354,84.7282
3302.4995,84.7053
3303.4639,84.6798
3304.4280,84.6473
3305.3923,84.6071
3306.3564,84.5626
3307.3208,84.5206
3308.2849,84.4872
3309.2493,84.4648
3310.2134,84.4503
3311.1777,84.4371
3312.1418,84.419
3313.1062,84.3936
3314.0703,84.3628
3315.0347,84.331
3315.9988,84.3012
3316.9631,84.2738
3317.9272,84.2471
3318.8916,84.2196
3319.8557,84.1924
3320.8201,84.1686
3321.7842,84.1509
3322.7485,84.1386
3323.7126,84.1272
3324.6770,84.1107
3325.6411,84.0851
3326.6055,84.0511
3327.5696,84.014
3328.5339,83.9798
3329.4980,83.9523
3330.4624,83.9315
3331.4265,83.9147
3332.3909,83.8993
3333.3550,83.8847
3334.3193,83.8716
3335.2834,83.8605
3336.2478,83.8502
3337.2119,83.8373
3338.1763,83.8188
3339.1404,83.795
3340.1047,83.7697
3341.0688,83.7487
3342.0332,83.7368
3342.9973,83.7346
3343.9617,83.7384
3344.9258,83.7422
3345.8901,83.7401
3346.8542,83.7292
3347.8186,83.7102
3348.7827,83.6856
3349.7471,83.6588
3350.7112,83.6319
3351.6755,83.6058
3352.6396,83.5805
3353.6040,83.5568
3354.5681,83.5361
3355.5325,83.5204
3356.4966,83.5107
3357.4609,83.5064
3358.4250,83.5042
3359.3894,83.4995
3360.3535,83.4883
3361.3179,83.4689
3362.2820,83.4439
3363.2463,83.419
3364.2104,83.4012
3365.1748,83.3958
3366.1389,83.4036
3367.1033,83.4214
3368.0674,83.4431
3369.0317,83.4632
3369.9958,83.4786
3370.9602,83.488
3371.9243,83.4914
3372.8887,83.4889
3373.8528,83.4807
3374.8171,83.4685
3375.7813,83.4561
3376.7456,83.4482
3377.7097,83.4487
3378.6741,83.4573
3379.6382,83.47
3380.6025,83.4808
3381.5667,83.4855
3382.5310,83.4841
3383.4951,83.4807
3384.4595,83.4806
3385.4236,83.4866
3386.3879,83.498
3387.3521,83.5117
3388.3164,83.5246
3389.2805,83.5357
3390.2449,83.5455
3391.2090,83.5551
3392.1733,83.5651
3393.1375,83.5766
3394.1018,83.5919
3395.0659,83.6148
3396.0303,83.6484
3396.9944,83.6914
3397.9587,83.7367
3398.9229,83.7739
3399.8872,83.7946
3400.8513,83.7982
3401.8157,83.7923
3402.7798,83.7895
3403.7441,83.8005
3404.7083,83.8294
3405.6726,83.8732
3406.6367,83.924
3407.6011,83.9736
3408.5652,84.0161
3409.5295,84.0487
3410.4937,84.0712
3411.4580,84.0845
3412.4221,84.0903
3413.3865,84.0911
3414.3506,84.0899
3415.3149,84.0902
3416.2791,84.0951
3417.2434,84.1084
3418.2075,84.1337
3419.1719,84.174
3420.1360,84.2297
3421.1003,84.2972
3422.0645,84.3693
3423.0288,84.438
3423.9929,84.4983
3424.9573,84.5495
3425.9214,84.5945
3426.8857,84.6385
3427.8499,84.6868
3428.8142,84.742
3429.7783,84.804
3430.7427,84.8703
3431.7068,84.9379
3432.6711,85.0045
3433.6353,85.0689
3434.5996,85.1299
3435.5637,85.1851
3436.5281,85.2307
3437.4922,85.2632
3438.4565,85.2813
3439.4207,85.2878
3440.3850,85.2889
3441.3491,85.2923
3442.3135,85.3045
3443.2776,85.3299
3444.2419,85.3711
3445.2061,85.4299
3446.1704,85.5067
3447.1345,85.5986
3448.0989,85.6989
3449.0630,85.7993
3450.0273,85.8934
3450.9915,85.9782
3451.9558,86.053
3452.9199,86.1176
3453.8843,86.1725
3454.8484,86.2192
3455.8127,86.2606
3456.7769,86.3006
3457.7412,86.3429
3458.7053,86.3894
3459.6697,86.4407
3460.6338,86.4965
3461.5981,86.5572
3462.5623,86.6236
3463.5266,86.6963
3464.4907,86.7747
3465.4551,86.8565
3466.4192,86.9381
3467.3835,87.016
3468.3477,87.0873
3469.3120,87.151
3470.2761,87.2084
3471.2405,87.264
3472.2046,87.3245
3473.1689,87.3961
3474.1331,87.4806
3475.0974,87.5721
3476.0615,87.659
3477.0259,87.7291
3477.9900,87.7768
3478.9543,87.8066
3479.9185,87.8325
3480.8828,87.8711
3481.8469,87.9328
3482.8113,88.0167
3483.7754,88.1125
3484.7397,88.2093
3485.7039,88.3002
3486.6682,88.385
3487.6323,88.4666
3488.5967,88.5472
3489.5608,88.6261
3490.5251,88.7001
3491.4893,88.7672
3492.4536,88.829
3493.4177,88.891
3494.3821,88.9594
3495.3462,89.0354
3496.3105,89.1124
3497.2747,89.1781
3498.2390,89.2228
3499.2031,89.2469
3500.1675,89.2637
3501.1316,89.2958
3502.0959,89.3643
3503.0601,89.4728
3504.0244,89.6035
3504.9885,89.7297
3505.9529,89.8353
3506.9170,89.9209
3507.8813,89.9986
3508.8455,90.0817
3509.8098,90.1768
3510.7739,90.2806
3511.7383,90.3845
3512.7024,90.4834
3513.6667,90.5781
3514.6309,90.6711
3515.5952,90.7614
3516.5593,90.8425
3517.5237,90.9069
3518.4878,90.9515
3519.4521,90.9818
3520.4163,91.0094
3521.3806,91.0467
3522.3447,91.1001
3523.3091,91.1673
3524.2732,91.2397
3525.2375,91.3121
3526.2017,91.3883
3527.1660,91.4802
3528.1301,91.5982
3529.0945,91.7408
3530.0586,91.8932
3531.0229,92.0369
3531.9871,92.1599
3532.9514,92.2611
3533.9155,92.349
3534.8799,92.4372
3535.8440,92.5369
3536.8083,92.6498
3537.7725,92.7657
3538.7368,92.8679
3539.7009,92.9429
3540.6653,92.9865
3541.6294,93.0051
3542.5938,93.017
3543.5579,93.0514
3544.5222,93.1366
3545.4863,93.2791
3546.4507,93.4523
3547.4148,93.6161
3548.3792,93.7474
3549.3433,93.8504
3550.3076,93.9467
3551.2717,94.0591
3552.2361,94.1985
3553.2002,94.3573
3554.1646,94.5149
3555.1287,94.6536
3556.0930,94.7678
3557.0571,94.8595
3558.0215,94.9315
3558.9856,94.9831
3559.9500,95.0125
3560.9141,95.0203
3561.8784,95.0123
3562.8425,94.9974
3563.8069,94.989
3564.7710,95.0168
3565.7354,95.1361
3566.6995,95.3835
3567.6638,95.703
3568.6279,95.9789
3569.5923,96.1503
3570.5564,96.2393
3571.5208,96.2954
3572.4849,96.351
3573.4492,96.413
3574.4133,96.4759
3575.3777,96.535
3576.3418,96.5925
3577.3062,96.6535
3578.2703,96.7193
3579.2346,96.7839
3580.1987,96.8371
3581.1631,96.873
3582.1272,96.895
3583.0916,96.9102
3584.0557,96.9232
3585.0200,96.9396
3585.9841,96.9803
3586.9485,97.0681
3587.9126,97.1797
3588.8770,97.2493
3589.8411,97.2421
3590.8054,97.1811
3591.7695,97.1099
3592.7339,97.0594
3593.6980,97.041
3594.6624,97.0489
3595.6265,97.0652
3596.5908,97.0743
3597.5549,97.0796
3598.5193,97.104
3599.4834,97.171
3600.4478,97.2834
3601.4119,97.417
3602.3762,97.5407
3603.3403,97.6401
3604.3047,97.7203
3605.2688,97.7967
3606.2332,97.8863
3607.1973,98.0009
3608.1616,98.1329
3609.1257,98.2493
3610.0901,98.3126
3611.0542,98.3093
3612.0186,98.2563
3612.9829,98.1872
3613.9470,98.133
3614.9114,98.1095
3615.8755,98.117
3616.8398,98.1482
3617.8040,98.1987
3618.7683,98.2637
3619.7324,98.3173
3620.6968,98.3167
3621.6609,98.2486
3622.6252,98.1555
3623.5894,98.1023
3624.5537,98.1268
3625.5178,98.2152
3626.4822,98.3187
3627.4463,98.4106
3628.4106,98.512
3629.3748,98.6111
3630.3391,98.644
3631.3032,98.6047
3632.2676,98.5591
3633.2317,98.5688
3634.1960,98.6463
3635.1602,98.7624
3636.1245,98.8751
3637.0886,98.9562
3638.0530,98.9996
3639.0171,99.0121
3639.9814,99.0019
3640.9456,98.9757
3641.9099,98.9438
3642.8740,98.9221
3643.8384,98.9211
3644.8025,98.925
3645.7668,98.8789
3646.7310,98.7325
3647.6953,98.5689
3648.6594,98.6231
3649.6238,98.9275
3650.5879,99.2081
3651.5522,99.3077
3652.5164,99.29
3653.4807,99.2573
3654.4448,99.2532
3655.4092,99.2674
3656.3733,99.2723
3657.3376,99.251
3658.3018,99.2095
3659.2661,99.173
3660.2302,99.1646
3661.1946,99.185
3662.1587,99.2151
3663.1230,99.2379
3664.0872,99.2565
3665.0515,99.2851
3666.0156,99.3231
3666.9800,99.3391
3667.9441,99.2964
3668.9084,99.205
3669.8726,99.1213
3670.8369,99.0822
3671.8010,99.08
3672.7654,99.0859
3673.7295,99.0725
3674.6938,99.0463
3675.6580,99.0509
3676.6223,99.0912
3677.5864,99.1186
3678.5508,99.1138
3679.5149,99.101
3680.4792,99.1
3681.4434,99.1087
3682.4077,99.1207
3683.3718,99.1426
3684.3362,99.1859
3685.3003,99.2389
3686.2646,99.2481
3687.2288,99.1476
3688.1931,98.9463
3689.1572,98.7655
3690.1216,98.7081
3691.0857,98.7495
3692.0500,98.8207
3693.0142,98.8891
3693.9785,98.9498
3694.9426,99.0032
3695.9070,99.0516
3696.8711,99.1011
3697.8354,99.1577
3698.7996,99.2198
3699.7639,99.2778
3700.7280,99.3205
3701.6924,99.3403
3702.6565,99.3337
3703.6208,99.3049
3704.5850,99.2706
3705.5493,99.2506
3706.5134,99.2493
3707.4778,99.2481
3708.4419,99.2306
3709.4063,99.235
3710.3704,99.3625
3711.3347,99.649
3712.2988,99.9656
3713.2632,100.158
3714.2273,100.193
3715.1917,100.127
3716.1558,100.024
3717.1201,99.9087
3718.0842,99.7798
3719.0486,99.6268
3720.0127,99.4506
3720.9771,99.2681
3721.9412,99.1047
3722.9055,98.9842
3723.8696,98.9217
3724.8340,98.9154
3725.7981,98.9461
3726.7625,98.9903
3727.7266,99.0385
3728.6909,99.0939
3729.6550,99.1543
3730.6194,99.1965
3731.5835,99.183
3732.5479,99.0996
3733.5120,99.0075
3734.4763,99.0237
3735.4404,99.1752
3736.4048,99.3376
3737.3689,99.4178
3738.3333,99.4395
3739.2974,99.5173
3740.2617,99.7364
3741.2258,100.092
3742.1902,100.479
3743.1543,100.738
3744.1187,100.756
3745.0828,100.552
3746.0471,100.241
3747.0112,99.9507
3747.9756,99.7567
3748.9397,99.6826
3749.9041,99.7431
3750.8682,99.9198
3751.8325,100.086
3752.7966,100.111
3753.7610,100.006
3754.7251,99.8676
3755.6895,99.7708
3756.6536,99.7379
3757.6179,99.763
3758.5820,99.8303
3759.5464,99.9116
3760.5105,99.9746
3761.4749,100.006
3762.4390,100.016
3763.4033,100.019
3764.3674,100.022
3765.3318,100.024
3766.2959,100.025
3767.2603,100.026
3768.2244,100.037
3769.1887,100.065
3770.1528,100.11
3771.1172,100.152
3772.0813,100.172
3773.0457,100.169
3774.0098,100.156
3774.9741,100.146
3775.9382,100.14
3776.9026,100.132
3777.8667,100.12
3778.8311,100.106
3779.7952,100.082
3780.7595,100.036
3781.7236,99.9643
3782.6880,99.8882
3783.6521,99.8366
3784.6165,99.8343
3785.5806,99.8872
3786.5449,99.977
3787.5090,100.072
3788.4734,100.146
3789.4375,100.191
3790.4019,100.21
3791.3660,100.211
3792.3303,100.189
3793.2944,100.134
3794.2588,100.043
3795.2229,99.9318
3796.1873,99.8378
3797.1514,99.79
3798.1157,99.7891
3799.0798,99.8069
3800.0442,99.8132
3801.0083,99.801
3801.9727,99.7819
3802.9368,99.7728
3803.9011,99.7961
3804.8652,99.8702
3805.8296,99.9866
3806.7937,100.102
3807.7581,100.158
3808.7222,100.13
3809.6865,100.056
3810.6506,100.009
3811.6150,100.038
3812.5791,100.124
3813.5435,100.191
3814.5076,100.165
3815.4719,100.036
3816.4360,99.8547
3817.4004,99.6911
3818.3645,99.5921
3819.3289,99.5767
3820.2930,99.6336
3821.2573,99.7111
3822.2214,99.738
3823.1858,99.6868
3824.1499,99.597
3825.1143,99.5305
3826.0784,99.5247
3827.0427,99.5788
3828.0068,99.664
3828.9712,99.7447
3829.9353,99.7978
3830.8997,99.8209
3831.8638,99.8275
3832.8281,99.8325
3833.7922,99.8371
3834.7566,99.8219
3835.7207,99.7586
3836.6851,99.64
3837.6492,99.504
3838.6135,99.4122
3839.5776,99.3997
3840.5420,99.4591
3841.5061,99.5634
3842.4705,99.6802
3843.4346,99.7707
3844.3989,99.7991
3845.3630,99.7561
3846.3274,99.6755
3847.2915,99.6243
3848.2559,99.6691
3849.2200,99.8357
3850.1843,100.08
3851.1484,100.304
3852.1128,100.441
3853.0769,100.527
3854.0413,100.538
3855.0054,100.377
3855.9697,100.088
3856.9338,99.8196
3857.8982,99.6716
3858.8623,99.6522
3859.8267,99.6987
3860.7908,99.7263
3861.7551,99.6886
3862.7192,99.6156
3863.6836,99.582
3864.6477,99.6314
3865.6121,99.7448
3866.5762,99.8684
3867.5405,99.945
3868.5046,99.9389
3869.4690,99.8572
3870.4331,99.7511
3871.3975,99.6771
3872.3616,99.6557
3873.3259,99.6725
3874.2900,99.7085
3875.2544,99.7552
3876.2185,99.8068
3877.1829,99.8492
3878.1470,99.8604
3879.1113,99.8293
3880.0754,99.7733
3881.0398,99.7326
3882.0039,99.7428
3882.9683,99.8123
3883.9324,99.9179
3884.8967,100.016
3885.8608,100.065
3886.8252,100.048
3887.7893,99.9818
3888.7537,99.8937
3889.7178,99.8049
3890.6821,99.7298
3891.6462,99.6806
3892.6106,99.6574
3893.5747,99.6518
3894.5391,99.6668
3895.5032,99.7132
3896.4675,99.7851
3897.4316,99.8525
3898.3960,99.8816
3899.3601,99.8599
3900.3245,99.8012
3901.2886,99.7314
3902.2529,99.6792
3903.2170,99.6669
3904.1814,99.6942
3905.1455,99.7365
3906.1099,99.7697
3907.0740,99.7885
3908.0383,99.7998
3909.0024,99.8084
3909.9668,99.8124
3910.9309,99.8093
3911.8953,99.8009
3912.8594,99.7926
3913.8237,99.7878
3914.7878,99.7854
3915.7522,99.782
3916.7163,99.7755
3917.6807,99.7621
3918.6448,99.7332
3919.6091,99.6833
3920.5732,99.6186
3921.5376,99.5544
3922.5017,99.5063
3923.4661,99.4836
3924.4302,99.4839
3925.3945,99.493
3926.3586,99.4946
3927.3230,99.4817
3928.2871,99.458
3929.2515,99.4346
3930.2156,99.4272
3931.1799,99.4517
3932.1440,99.5102
3933.1084,99.5855
3934.0725,99.6534
3935.0369,99.7003
3936.0010,99.725
3936.9653,99.7308
3937.9294,99.719
3938.8938,99.6883
3939.8579,99.6405
3940.8223,99.5855
3941.7864,99.5398
3942.7507,99.5175
3943.7148,99.5191
3944.6792,99.533
3945.6433,99.5438
3946.6077,99.54
3947.5718,99.5204
3948.5361,99.4944
3949.5002,99.4768
3950.4646,99.4774
3951.4287,99.4953
3952.3931,99.5228
3953.3572,99.5504
3954.3215,99.5709
3955.2856,99.5807
3956.2500,99.5813
3957.2141,99.577
3958.1785,99.5728
3959.1426,99.5725
3960.1069,99.5783
3961.0710,99.5908
3962.0354,99.6078
3962.9995,99.6249
3963.9639,99.6369
3964.9280,99.6391
3965.8923,99.6305
3966.8564,99.6127
3967.8208,99.59
3968.7849,99.5667
3969.7493,99.5459
3970.7134,99.5289
3971.6777,99.5162
3972.6418,99.5091
3973.6062,99.51
3974.5703,99.5207
3975.5347,99.54
3976.4988,99.5626
3977.4631,99.5806
3978.4272,99.5868
3979.3916,99.5779
3980.3557,99.5563
3981.3201,99.5299
3982.2842,99.5082
3983.2485,99.4986
3984.2126,99.5031
3985.1770,99.5183
3986.1411,99.5375
3987.1055,99.553
3988.0696,99.5581
3989.0339,99.5483
3989.9980,99.5241
3990.9624,99.491
3991.9265,99.4596
3992.8909,99.4411
3993.8550,99.4423
3994.8193,99.4614
3995.7834,99.488
3996.7478,99.5083
3997.7119,99.5132
3998.6763,99.503
3999.6404,99.4861
4000.6047,99.282

##### Extended Information
[Comments]
Sample name
Comment
User
Division
Company,HANKYONG

[Detailed Information]
Creation date,4/24/2024 11:56 AM

Data array type,Linear data array
Horizontal axis,Wavenumber [cm-1]
Vertical axis,%T
Start,649.893 cm-1
End,4000.6 cm-1
Data interval,0.964233 cm-1
Data points,3476    

[Measurement Information]
Model Name,FT/IR-4700typeA
Serial Number,D056761788

Accessory,ATR PRO ONE
Accessory S/N,C174761809
Incident angle,45 deg

Measurement Date,4/24/2024 11:56 AM

Light Source,Standard
Detector,TGS
Accumulation,32
Resolution,4 cm-1
Zero Filling,On
Apodization,Cosine
Gain,Auto (4)
Aperture,Auto (7.1 mm)
Scanning Speed,Auto (2 mm/sec)
Filter,Auto (30000 Hz)

