TITLE,
DATA TYPE,INFRARED SPECTRUM
ORIGIN,JASCO
OWNER,
DATE,24/04/24
TIME,10:54:13
SPECTROMETER/DATA SYSTEM,
LOCALE,1033
RESOLUTION,
DELTAX,0.964233
XUNITS,1/CM
YUNITS,TRANSMITTANCE
FIRSTX,  649.8934
LASTX, 4000.6047
NPOINTS,    3476
FIRSTY,   100.23068
MAXY,   101.81546
MINY,    69.85869
XYDATA
649.8934,100.231
650.8576,100.261
651.8218,100.304
652.7861,100.271
653.7503,100.213
654.7145,100.141
655.6788,100.062
656.6430,99.9769
657.6072,99.8801
658.5715,99.768
659.5357,99.6507
660.4999,99.5506
661.4642,99.484
662.4284,99.4382
663.3926,99.367
664.3569,99.2002
665.3211,98.8547
666.2853,98.2616
667.2496,97.4604
668.2138,96.7389
669.1780,96.4774
670.1423,96.6892
671.1065,97.0773
672.0707,97.4087
673.0350,97.5977
673.9992,97.6371
674.9634,97.5541
675.9277,97.3969
676.8919,97.2226
677.8561,97.0798
678.8204,96.9955
679.7846,96.9738
680.7488,96.9998
681.7131,97.0459
682.6773,97.0815
683.6415,97.0877
684.6058,97.0659
685.5700,97.0335
686.5342,97.0096
687.4985,97.001
688.4627,96.9975
689.4269,96.9796
690.3912,96.9316
691.3554,96.8578
692.3196,96.7924
693.2839,96.7897
694.2481,96.8792
695.2123,97.0356
696.1766,97.2058
697.1408,97.3476
698.1050,97.4369
699.0693,97.4622
700.0335,97.4233
700.9977,97.333
701.9620,97.2148
702.9262,97.0963
703.8904,96.9998
704.8547,96.9328
705.8189,96.8852
706.7831,96.8345
707.7474,96.7576
708.7116,96.6409
709.6758,96.4825
710.6401,96.287
711.6043,96.0567
712.5685,95.789
713.5328,95.4786
714.4970,95.1245
715.4612,94.8419
716.4255,94.4312
717.3897,94.0388
718.3539,93.6994
719.3182,93.4403
720.2824,93.2699
721.2466,93.1699
722.2109,93.1016
723.1751,93.0212
724.1393,92.8967
725.1036,92.7167
726.0678,92.4911
727.0320,92.2459
727.9963,92.0137
728.9605,91.8208
729.9247,91.6777
730.8890,91.5752
731.8532,91.487
732.8174,91.3779
733.7817,91.2137
734.7459,90.9693
735.7101,90.6318
736.6744,90.1988
737.6386,89.676
738.6028,89.0758
739.5671,88.4187
740.5313,87.7354
741.4955,87.0651
742.4598,86.4495
743.4240,85.924
744.3882,85.5102
745.3525,85.2132
746.3167,85.0242
747.2809,84.927
748.2452,84.9034
749.2094,84.9372
750.1736,85.0159
751.1379,85.1298
752.1021,85.2712
753.0663,85.4332
754.0306,85.6081
754.9948,85.7862
755.9590,85.9554
756.9233,86.1027
757.8875,86.2158
758.8517,86.2861
759.8160,86.3118
760.7802,86.299
761.7444,86.2602
762.7087,86.2098
763.6729,86.159
764.6371,86.1132
765.6014,86.0742
766.5656,86.0464
767.5298,86.0419
768.4941,86.0806
769.4583,86.1815
770.4225,86.3513
771.3868,86.5761
772.3510,86.8223
773.3152,87.0482
774.2795,87.2187
775.2437,87.3163
776.2079,87.3422
777.1722,87.3097
778.1364,87.2332
779.1006,87.1219
780.0649,86.9787
781.0291,86.8045
781.9933,86.6037
782.9576,86.3864
783.9218,86.1675
784.8860,85.9627
785.8503,85.7847
786.8145,85.6394
787.7787,85.5245
788.7430,85.4283
789.7072,85.3323
790.6714,85.2163
791.6357,85.0652
792.5999,84.8751
793.5641,84.6546
794.5284,84.4198
795.4926,84.1864
796.4568,83.9613
797.4211,83.7413
798.3853,83.5164
799.3495,83.2779
800.3138,83.0235
801.2780,82.7596
802.2422,82.4976
803.2065,82.2498
804.1707,82.0255
805.1349,81.8301
806.0992,81.6656
807.0634,81.5333
808.0276,81.4353
808.9919,81.3752
809.9561,81.3582
810.9203,81.3878
811.8846,81.4637
812.8488,81.5789
813.8130,81.7211
814.7773,81.8755
815.7415,82.0291
816.7057,82.1739
817.6700,82.3078
818.6342,82.4319
819.5984,82.5486
820.5627,82.6584
821.5269,82.7587
822.4911,82.8441
823.4554,82.9074
824.4196,82.9426
825.3839,82.9477
826.3481,82.9261
827.3123,82.8863
828.2766,82.8384
829.2408,82.7898
830.2050,82.7432
831.1693,82.6969
832.1335,82.6479
833.0977,82.5939
834.0620,82.5342
835.0262,82.4677
835.9904,82.3917
836.9547,82.3019
837.9189,82.1943
838.8831,82.0678
839.8474,81.9243
840.8116,81.767
841.7758,81.5986
842.7401,81.4202
843.7043,81.2327
844.6685,81.0384
845.6328,80.8416
846.5970,80.6468
847.5612,80.4569
848.5255,80.2727
849.4897,80.0944
850.4539,79.925
851.4182,79.771
852.3824,79.6419
853.3466,79.5453
854.3109,79.4837
855.2751,79.452
856.2393,79.4399
857.2036,79.4352
858.1678,79.4276
859.1320,79.4105
860.0963,79.3821
861.0605,79.3453
862.0247,79.3085
862.9890,79.2847
863.9532,79.2893
864.9174,79.3341
865.8817,79.4214
866.8459,79.5408
867.8101,79.6724
868.7744,79.7953
869.7386,79.8965
870.7028,79.9743
871.6671,80.0342
872.6313,80.08
873.5955,80.1079
874.5598,80.1087
875.5240,80.0759
876.4882,80.015
877.4525,79.945
878.4167,79.8905
879.3809,79.8701
880.3452,79.8892
881.3094,79.9415
882.2736,80.0182
883.2379,80.1158
884.2021,80.2375
885.1663,80.3875
886.1306,80.5648
887.0948,80.7626
888.0590,80.9738
889.0233,81.1995
889.9875,81.4504
890.9517,81.7414
891.9160,82.0815
892.8802,82.4668
893.8444,82.8825
894.8087,83.3112
895.7729,83.7412
896.7371,84.1702
897.7014,84.6007
898.6656,85.0331
899.6298,85.4611
900.5941,85.8719
901.5583,86.2524
902.5225,86.5941
903.4868,86.8964
904.4510,87.1655
905.4152,87.4097
906.3795,87.6359
907.3437,87.846
908.3079,88.0371
909.2722,88.2026
910.2364,88.3357
911.2006,88.4332
912.1649,88.4982
913.1291,88.5403
914.0933,88.573
915.0576,88.6101
916.0218,88.6616
916.9860,88.7312
917.9503,88.8174
918.9145,88.9158
919.8787,89.0224
920.8430,89.1352
921.8072,89.2541
922.7714,89.3791
923.7357,89.5082
924.6999,89.6363
925.6641,89.7574
926.6284,89.8675
927.5926,89.9688
928.5568,90.0721
929.5211,90.1976
930.4853,90.3721
931.4495,90.6245
932.4138,90.981
933.3780,91.4591
934.3422,92.0633
935.3065,92.7819
936.2707,93.5872
937.2349,94.4391
938.1992,95.2927
939.1634,96.1088
940.1276,96.8621
941.0919,97.5449
942.0561,98.1638
943.0203,98.7313
943.9846,99.2568
944.9488,99.7411
945.9130,100.177
946.8773,100.554
947.8415,100.867
948.8057,101.117
949.7700,101.311
950.7342,101.46
951.6984,101.574
952.6627,101.661
953.6269,101.726
954.5911,101.773
955.5554,101.803
956.5196,101.815
957.4838,101.81
958.4481,101.785
959.4123,101.738
960.3765,101.668
961.3408,101.578
962.3050,101.47
963.2692,101.348
964.2335,101.22
965.1977,101.093
966.1619,100.972
967.1262,100.865
968.0904,100.777
969.0546,100.711
970.0189,100.666
970.9831,100.639
971.9473,100.628
972.9116,100.628
973.8758,100.634
974.8400,100.642
975.8043,100.65
976.7685,100.652
977.7327,100.641
978.6970,100.612
979.6612,100.556
980.6254,100.469
981.5897,100.353
982.5539,100.212
983.5181,100.056
984.4824,99.9287
985.4466,99.7923
986.4108,99.6478
987.3751,99.4963
988.3393,99.3413
989.3035,99.1894
990.2678,99.0493
991.2320,98.9286
992.1962,98.8307
993.1605,98.7542
994.1247,98.6931
995.0889,98.6403
996.0532,98.5901
997.0174,98.5387
997.9816,98.4843
998.9459,98.4248
999.9101,98.3572
1000.8743,98.2777
1001.8386,98.1813
1002.8028,98.0607
1003.7670,97.9053
1004.7313,97.7014
1005.6955,97.4354
1006.6597,97.0985
1007.6240,96.6897
1008.5882,96.2153
1009.5524,95.6846
1010.5167,95.1059
1011.4809,94.4848
1012.4451,93.8262
1013.4094,93.1361
1014.3736,92.4213
1015.3378,91.687
1016.3021,90.9354
1017.2663,90.1671
1018.2305,89.3848
1019.1948,88.5912
1020.1590,87.7832
1021.1232,86.9429
1022.0875,86.0381
1023.0517,85.0372
1024.0160,83.9328
1024.9802,82.7594
1025.9445,81.5896
1026.9087,80.5059
1027.8729,79.5629
1028.8372,78.7625
1029.8014,78.0574
1030.7656,77.3802
1031.7299,76.6801
1032.6941,75.9462
1033.6583,75.2077
1034.6226,74.5157
1035.5868,73.9184
1036.5510,73.4438
1037.5153,73.0933
1038.4795,72.8449
1039.4437,72.663
1040.4080,72.5101
1041.3722,72.3581
1042.3364,72.1954
1043.3007,72.027
1044.2649,71.8682
1045.2291,71.735
1046.1934,71.6383
1047.1576,71.584
1048.1218,71.5787
1049.0861,71.6328
1050.0503,71.7583
1051.0145,71.9597
1051.9788,72.2272
1052.9430,72.5382
1053.9072,72.8698
1054.8715,73.2157
1055.8357,73.5934
1056.7999,74.0334
1057.7642,74.5511
1058.7284,75.1177
1059.6926,75.6507
1060.6569,76.0374
1061.6211,76.1851
1062.5853,76.0719
1063.5496,75.7681
1064.5138,75.4103
1065.4780,75.1396
1066.4423,75.0346
1067.4065,75.0771
1068.3707,75.1686
1069.3350,75.1845
1070.2992,75.0352
1071.2634,74.6993
1072.2277,74.218
1073.1919,73.6614
1074.1561,73.0932
1075.1204,72.551
1076.0846,72.0489
1077.0488,71.591
1078.0131,71.1822
1078.9773,70.8307
1079.9415,70.5423
1080.9058,70.3156
1081.8700,70.1417
1082.8342,70.0098
1083.7985,69.9137
1084.7627,69.8587
1085.7269,69.8624
1086.6912,69.9522
1087.6554,70.1557
1088.6196,70.4889
1089.5839,70.9458
1090.5481,71.4958
1091.5123,72.0922
1092.4766,72.69
1093.4408,73.2634
1094.4050,73.8143
1095.3693,74.3672
1096.3335,74.954
1097.2977,75.5977
1098.2620,76.3026
1099.2262,77.0552
1100.1904,77.8328
1101.1547,78.6123
1102.1189,79.3762
1103.0831,80.1141
1104.0474,80.8214
1105.0116,81.4971
1105.9758,82.1438
1106.9401,82.7663
1107.9043,83.3721
1108.8685,83.9707
1109.8328,84.5739
1110.7970,85.1954
1111.7612,85.8489
1112.7255,86.5458
1113.6897,87.2912
1114.6539,88.082
1115.6182,88.907
1116.5824,89.7501
1117.5466,90.595
1118.5109,91.4286
1119.4751,92.2427
1120.4393,93.0319
1121.4036,93.7925
1122.3678,94.5204
1123.3320,95.2118
1124.2963,95.8639
1125.2605,96.4758
1126.2247,97.0472
1127.1890,97.5653
1128.1532,98.0093
1129.1174,98.3991
1130.0817,98.7249
1131.0459,98.9784
1132.0101,99.1544
1132.9744,99.2521
1133.9386,99.2738
1134.9028,99.2223
1135.8671,99.0994
1136.8313,98.9044
1137.7955,98.6363
1138.7598,98.2956
1139.7240,97.8865
1140.6882,97.4176
1141.6525,96.9026
1142.6167,96.3593
1143.5809,95.8088
1144.5452,95.2741
1145.5094,94.7777
1146.4736,94.3383
1147.4379,93.9668
1148.4021,93.6644
1149.3663,93.4226
1150.3306,93.2261
1151.2948,93.0568
1152.2590,92.8975
1153.2233,92.7347
1154.1875,92.5582
1155.1517,92.3609
1156.1160,92.1384
1157.0802,91.8887
1158.0444,91.612
1159.0087,91.3098
1159.9729,90.983
1160.9371,90.6305
1161.9014,90.2495
1162.8656,89.8372
1163.8298,89.3937
1164.7941,88.9238
1165.7583,88.4364
1166.7225,87.9419
1167.6868,87.4483
1168.6510,86.9589
1169.6152,86.472
1170.5795,85.9835
1171.5437,85.4903
1172.5079,84.9925
1173.4722,84.4936
1174.4364,83.9994
1175.4006,83.5145
1176.3649,83.0415
1177.3291,82.58
1178.2933,82.1279
1179.2576,81.6824
1180.2218,81.2413
1181.1860,80.8029
1182.1503,80.3666
1183.1145,79.9332
1184.0787,79.5058
1185.0430,79.089
1186.0072,78.6884
1186.9714,78.3089
1187.9357,77.9532
1188.8999,77.622
1189.8641,77.3144
1190.8284,77.0294
1191.7926,76.767
1192.7568,76.5275
1193.7211,76.3119
1194.6853,76.1208
1195.6495,75.9547
1196.6138,75.8133
1197.5780,75.6953
1198.5422,75.5976
1199.5065,75.5524
1200.4707,75.477
1201.4349,75.4078
1202.3992,75.342
1203.3634,75.2794
1204.3276,75.2209
1205.2919,75.168
1206.2561,75.1218
1207.2203,75.0825
1208.1846,75.0499
1209.1488,75.0235
1210.1130,75.0026
1211.0773,74.9861
1212.0415,74.9719
1213.0057,74.9569
1213.9700,74.9379
1214.9342,74.9128
1215.8984,74.8807
1216.8627,74.8426
1217.8269,74.8004
1218.7911,74.755
1219.7554,74.7065
1220.7196,74.6552
1221.6838,74.6016
1222.6481,74.5475
1223.6123,74.4947
1224.5765,74.4437
1225.5408,74.3928
1226.5050,74.3382
1227.4692,74.2746
1228.4335,74.1961
1229.3977,74.0981
1230.3619,73.9806
1231.3262,73.8527
1232.2904,73.7352
1233.2546,73.6584
1234.2189,73.6536
1235.1831,73.7413
1236.1473,73.9232
1237.1116,74.184
1238.0758,74.5028
1239.0400,74.8659
1240.0043,75.2706
1240.9685,75.7171
1241.9327,76.193
1242.8970,76.6626
1243.8612,77.0725
1244.8254,77.3714
1245.7897,77.5328
1246.7539,77.5669
1247.7181,77.5131
1248.6824,77.4207
1249.6466,77.3284
1250.6108,77.2542
1251.5751,77.1973
1252.5393,77.1482
1253.5035,77.0982
1254.4678,77.0444
1255.4320,76.9904
1256.3962,76.9433
1257.3605,76.9113
1258.3247,76.9017
1259.2889,76.9191
1260.2532,76.9637
1261.2174,77.0307
1262.1816,77.1113
1263.1459,77.1944
1264.1101,77.2689
1265.0743,77.324
1266.0386,77.3496
1267.0028,77.337
1267.9670,77.2801
1268.9313,77.1773
1269.8955,77.0331
1270.8597,76.8583
1271.8240,76.6689
1272.7882,76.4831
1273.7524,76.3182
1274.7167,76.1875
1275.6809,76.0983
1276.6451,76.0521
1277.6094,76.0449
1278.5736,76.0696
1279.5378,76.1187
1280.5021,76.1866
1281.4663,76.2709
1282.4305,76.3729
1283.3948,76.4961
1284.3590,76.6454
1285.3232,76.8258
1286.2875,77.0421
1287.2517,77.2973
1288.2159,77.591
1289.1802,77.9179
1290.1444,78.2673
1291.1086,78.6261
1292.0729,78.9811
1293.0371,79.3218
1294.0013,79.641
1294.9656,79.9345
1295.9298,80.2004
1296.8940,80.4384
1297.8583,80.65
1298.8225,80.8385
1299.7867,81.0085
1300.7510,81.1649
1301.7152,81.3122
1302.6794,81.4555
1303.6437,81.6006
1304.6079,81.753
1305.5721,81.9162
1306.5364,82.0897
1307.5006,82.269
1308.4648,82.4485
1309.4291,82.625
1310.3933,82.8004
1311.3575,82.9788
1312.3218,83.1631
1313.2860,83.3513
1314.2502,83.5375
1315.2145,83.7163
1316.1787,83.8876
1317.1429,84.0565
1318.1072,84.2294
1319.0714,84.4076
1320.0356,84.5852
1320.9999,84.7523
1321.9641,84.9018
1322.9283,85.0335
1323.8926,85.1532
1324.8568,85.2685
1325.8210,85.3841
1326.7853,85.5003
1327.7495,85.6136
1328.7137,85.7198
1329.6780,85.8157
1330.6422,85.8995
1331.6064,85.9689
1332.5707,86.0202
1333.5349,86.0483
1334.4991,86.0497
1335.4634,86.0252
1336.4276,85.9839
1337.3918,85.9448
1338.3561,85.9319
1339.3203,85.9589
1340.2845,86.0139
1341.2488,86.0656
1342.2130,86.0856
1343.1772,86.0626
1344.1415,85.9995
1345.1057,85.9056
1346.0699,85.7913
1347.0342,85.6662
1347.9984,85.5368
1348.9626,85.406
1349.9269,85.2734
1350.8911,85.138
1351.8553,85.0002
1352.8196,84.864
1353.7838,84.7359
1354.7480,84.6219
1355.7123,84.5238
1356.6765,84.4379
1357.6407,84.3582
1358.6050,84.2811
1359.5692,84.209
1360.5334,84.153
1361.4977,84.1299
1362.4619,84.147
1363.4261,84.1879
1364.3904,84.2213
1365.3546,84.2249
1366.3188,84.1944
1367.2831,84.1356
1368.2473,84.0546
1369.2115,83.9529
1370.1758,83.8273
1371.1400,83.6721
1372.1042,83.4859
1373.0685,83.2792
1374.0327,83.0773
1374.9969,82.9079
1375.9612,82.7841
1376.9254,82.7048
1377.8896,82.6703
1378.8539,82.6918
1379.8181,82.7849
1380.7823,82.9559
1381.7466,83.1955
1382.7108,83.4886
1383.6750,83.831
1384.6393,84.2359
1385.6035,84.717
1386.5677,85.2517
1387.5320,85.7529
1388.4962,86.1069
1389.4604,86.2541
1390.4247,86.2193
1391.3889,86.0784
1392.3531,85.9211
1393.3174,85.8353
1394.2816,85.8886
1395.2458,86.0911
1396.2101,86.372
1397.1743,86.615
1398.1385,86.7313
1399.1028,86.7004
1400.0670,86.5551
1401.0313,86.3461
1401.9955,86.1158
1402.9597,85.893
1403.9240,85.6984
1404.8882,85.5481
1405.8524,85.4493
1406.8167,85.3965
1407.7809,85.3792
1408.7451,85.3927
1409.7094,85.4388
1410.6736,85.5158
1411.6378,85.61
1412.6021,85.6994
1413.5663,85.7687
1414.5305,85.8185
1415.4948,85.8599
1416.4590,85.9039
1417.4232,85.9572
1418.3875,86.0133
1419.3517,86.0388
1420.3159,85.9892
1421.2802,85.852
1422.2444,85.6518
1423.2086,85.4211
1424.1729,85.1806
1425.1371,84.9361
1426.1013,84.6821
1427.0656,84.4053
1428.0298,84.0922
1428.9940,83.7408
1429.9583,83.3714
1430.9225,83.0201
1431.8867,82.7171
1432.8510,82.471
1433.8152,82.2663
1434.7794,82.0751
1435.7437,81.8783
1436.7079,81.6768
1437.6721,81.4729
1438.6364,81.2583
1439.6006,81.0344
1440.5648,80.8184
1441.5291,80.627
1442.4933,80.464
1443.4575,80.3212
1444.4218,80.1849
1445.3860,80.0439
1446.3502,79.8926
1447.3145,79.7296
1448.2787,79.5532
1449.2429,79.3591
1450.2072,79.1488
1451.1714,78.9378
1452.1356,78.7501
1453.0999,78.6022
1454.0641,78.4899
1455.0283,78.4032
1455.9926,78.3872
1456.9568,78.5529
1457.9210,78.8628
1458.8853,79.0926
1459.8495,79.1567
1460.8137,79.1449
1461.7780,79.1701
1462.7422,79.312
1463.7064,79.6179
1464.6707,80.0851
1465.6349,80.6323
1466.5991,81.1489
1467.5634,81.5947
1468.5276,82.0119
1469.4918,82.4707
1470.4561,83.0338
1471.4203,83.7522
1472.3845,84.6404
1473.3488,85.6004
1474.3130,86.4346
1475.2772,87.0245
1476.2415,87.4021
1477.2057,87.6579
1478.1699,87.8679
1479.1342,88.083
1480.0984,88.336
1481.0626,88.6412
1482.0269,88.9881
1482.9911,89.3445
1483.9553,89.6726
1484.9196,89.9451
1485.8838,90.1515
1486.8480,90.3029
1487.8123,90.4457
1488.7765,90.6497
1489.7407,90.922
1490.7050,91.1689
1491.6692,91.3091
1492.6334,91.3456
1493.5977,91.3168
1494.5619,91.2402
1495.5261,91.1041
1496.4904,90.8956
1497.4546,90.6283
1498.4188,90.3277
1499.3831,90.0092
1500.3473,89.6978
1501.3115,89.4391
1502.2758,89.2723
1503.2400,89.1981
1504.2042,89.1572
1505.1685,89.0441
1506.1327,88.8248
1507.0969,88.6777
1508.0612,88.7097
1509.0254,88.7353
1509.9896,88.6509
1510.9539,88.5111
1511.9181,88.3857
1512.8823,88.3157
1513.8466,88.3289
1514.8108,88.4526
1515.7750,88.7029
1516.7393,89.0656
1517.7035,89.5046
1518.6677,90.002
1519.6320,90.5807
1520.5962,91.2679
1521.5604,92.0251
1522.5247,92.749
1523.4889,93.3716
1524.4531,93.9199
1525.4174,94.46
1526.3816,95.0121
1527.3458,95.5318
1528.3101,95.9656
1529.2743,96.3063
1530.2385,96.5977
1531.2028,96.905
1532.1670,97.2786
1533.1312,97.7125
1534.0955,98.1333
1535.0597,98.4718
1536.0239,98.7272
1536.9882,98.9319
1537.9524,99.0762
1538.9166,99.0993
1539.8809,99.0183
1540.8451,99.0491
1541.8093,99.3053
1542.7736,99.6074
1543.7378,99.8242
1544.7020,99.9551
1545.6663,100.02
1546.6305,100.026
1547.5947,99.9874
1548.5590,99.9218
1549.5232,99.8453
1550.4874,99.7707
1551.4517,99.677
1552.4159,99.5625
1553.3801,99.4485
1554.3444,99.3683
1555.3086,99.3339
1556.2728,99.3084
1557.2371,99.2442
1558.2013,99.2048
1559.1655,99.2456
1560.1298,99.1499
1561.0940,98.7968
1562.0582,98.3162
1563.0225,97.8558
1563.9867,97.4839
1564.9509,97.2022
1565.9152,96.9734
1566.8794,96.7419
1567.8436,96.4597
1568.8079,96.1153
1569.7721,95.738
1570.7363,95.3691
1571.7006,95.035
1572.6648,94.7338
1573.6290,94.4238
1574.5933,94.0347
1575.5575,93.5306
1576.5217,92.9732
1577.4860,92.4546
1578.4502,91.9908
1579.4144,91.5498
1580.3787,91.1068
1581.3429,90.6466
1582.3071,90.1599
1583.2714,89.6487
1584.2356,89.1251
1585.1998,88.5985
1586.1641,88.0692
1587.1283,87.5328
1588.0925,86.9898
1589.0568,86.4471
1590.0210,85.9141
1590.9852,85.3968
1591.9495,84.899
1592.9137,84.4286
1593.8779,83.9997
1594.8422,83.6277
1595.8064,83.3189
1596.7706,83.0665
1597.7349,82.856
1598.6991,82.6741
1599.6633,82.5146
1600.6276,82.3784
1601.5918,82.2704
1602.5560,82.1946
1603.5203,82.1498
1604.4845,82.1324
1605.4487,82.142
1606.4130,82.1868
1607.3772,82.2812
1608.3414,82.4327
1609.3057,82.6259
1610.2699,82.8252
1611.2341,83.0015
1612.1984,83.1541
1613.1626,83.3065
1614.1268,83.4928
1615.0911,83.7512
1616.0553,84.0982
1617.0195,84.4722
1617.9838,84.76
1618.9480,84.9231
1619.9122,85.0263
1620.8765,85.1606
1621.8407,85.384
1622.8049,85.7021
1623.7692,86.0706
1624.7334,86.4293
1625.6976,86.7552
1626.6619,87.0721
1627.6261,87.4077
1628.5903,87.7541
1629.5546,88.0784
1630.5188,88.3626
1631.4830,88.6217
1632.4473,88.8821
1633.4115,89.1588
1634.3757,89.4668
1635.3400,89.8401
1636.3042,90.261
1637.2684,90.6072
1638.2327,90.8035
1639.1969,90.8969
1640.1611,90.9657
1641.1254,91.0564
1642.0896,91.1783
1643.0538,91.3098
1644.0181,91.4036
1644.9823,91.4131
1645.9465,91.3518
1646.9108,91.3014
1647.8750,91.3185
1648.8392,91.4096
1649.8035,91.5739
1650.7677,91.7806
1651.7319,91.9397
1652.6962,91.9734
1653.6604,91.8904
1654.6246,91.6627
1655.5889,91.2766
1656.5531,90.8434
1657.5173,90.4789
1658.4816,90.2214
1659.4458,90.0403
1660.4100,89.8734
1661.3743,89.6736
1662.3385,89.4383
1663.3027,89.1925
1664.2670,88.9572
1665.2312,88.7401
1666.1954,88.5301
1667.1597,88.2942
1668.1239,88.0005
1669.0881,87.6659
1670.0524,87.3619
1671.0166,87.1412
1671.9808,86.9953
1672.9451,86.8875
1673.9093,86.7784
1674.8735,86.6265
1675.8378,86.3976
1676.8020,86.0881
1677.7662,85.738
1678.7305,85.4131
1679.6947,85.1668
1680.6589,85.0075
1681.6232,84.8923
1682.5874,84.7611
1683.5516,84.6001
1684.5159,84.4215
1685.4801,84.1878
1686.4443,83.8736
1687.4086,83.5184
1688.3728,83.1778
1689.3370,82.8866
1690.3013,82.6555
1691.2655,82.4763
1692.2297,82.3234
1693.1940,82.1554
1694.1582,81.9284
1695.1224,81.6258
1696.0867,81.2935
1697.0509,81.0396
1698.0151,80.9593
1698.9794,81.0294
1699.9436,81.1054
1700.9078,81.0532
1701.8721,80.8615
1702.8363,80.6221
1703.8005,80.4476
1704.7648,80.4134
1705.7290,80.5324
1706.6932,80.7549
1707.6575,81.0032
1708.6217,81.2263
1709.5859,81.4241
1710.5502,81.624
1711.5144,81.8486
1712.4786,82.1014
1713.4429,82.3776
1714.4071,82.6985
1715.3713,83.1503
1716.3356,83.8473
1717.2998,84.7386
1718.2640,85.5452
1719.2283,86.0701
1720.1925,86.3668
1721.1567,86.592
1722.1210,86.863
1723.0852,87.2186
1724.0494,87.6332
1725.0137,88.0514
1725.9779,88.4265
1726.9421,88.7446
1727.9064,89.0224
1728.8706,89.291
1729.8348,89.5804
1730.7991,89.9158
1731.7633,90.322
1732.7275,90.8119
1733.6918,91.3289
1734.6560,91.7334
1735.6202,91.9391
1736.5845,92.0044
1737.5487,92.0502
1738.5129,92.1616
1739.4772,92.3561
1740.4414,92.596
1741.4056,92.8221
1742.3699,92.9959
1743.3341,93.1202
1744.2983,93.2245
1745.2626,93.3382
1746.2268,93.4791
1747.1910,93.6633
1748.1553,93.9174
1749.1195,94.2611
1750.0837,94.6569
1751.0480,95.0084
1752.0122,95.242
1752.9764,95.3639
1753.9407,95.4311
1754.9049,95.4987
1755.8691,95.5942
1756.8334,95.7177
1757.7976,95.8571
1758.7618,96.0044
1759.7261,96.1625
1760.6903,96.3375
1761.6545,96.5246
1762.6188,96.7043
1763.5830,96.8578
1764.5472,96.9846
1765.5115,97.1003
1766.4757,97.2198
1767.4399,97.343
1768.4042,97.4566
1769.3684,97.5488
1770.3326,97.6307
1771.2969,97.7403
1772.2611,97.9041
1773.2253,98.0899
1774.1896,98.2351
1775.1538,98.3178
1776.1180,98.3671
1777.0823,98.4238
1778.0465,98.5099
1779.0107,98.625
1779.9750,98.7566
1780.9392,98.8925
1781.9034,99.0255
1782.8677,99.1509
1783.8319,99.2605
1784.7961,99.3421
1785.7604,99.3886
1786.7246,99.4082
1787.6888,99.4212
1788.6531,99.444
1789.6173,99.4764
1790.5815,99.5071
1791.5458,99.5325
1792.5100,99.5566
1793.4742,99.5695
1794.4385,99.5582
1795.4027,99.5336
1796.3669,99.5217
1797.3312,99.538
1798.2954,99.595
1799.2596,99.6726
1800.2239,99.7499
1801.1881,99.8198
1802.1523,99.8767
1803.1166,99.9178
1804.0808,99.9452
1805.0450,99.9639
1806.0093,99.9775
1806.9735,99.9868
1807.9377,99.9929
1808.9020,100.001
1809.8662,100.02
1810.8304,100.057
1811.7947,100.108
1812.7589,100.163
1813.7231,100.215
1814.6874,100.26
1815.6516,100.298
1816.6158,100.328
1817.5801,100.35
1818.5443,100.365
1819.5085,100.378
1820.4728,100.395
1821.4370,100.42
1822.4012,100.451
1823.3655,100.48
1824.3297,100.498
1825.2939,100.498
1826.2582,100.48
1827.2224,100.456
1828.1866,100.442
1829.1509,100.455
1830.1151,100.497
1831.0793,100.545
1832.0436,100.571
1833.0078,100.572
1833.9720,100.559
1834.9363,100.55
1835.9005,100.547
1836.8647,100.551
1837.8290,100.556
1838.7932,100.568
1839.7574,100.595
1840.7217,100.639
1841.6859,100.69
1842.6501,100.728
1843.6144,100.743
1844.5786,100.738
1845.5428,100.721
1846.5071,100.694
1847.4713,100.67
1848.4355,100.663
1849.3998,100.677
1850.3640,100.704
1851.3282,100.729
1852.2925,100.744
1853.2567,100.748
1854.2209,100.746
1855.1852,100.743
1856.1494,100.74
1857.1136,100.737
1858.0779,100.735
1859.0421,100.735
1860.0063,100.737
1860.9706,100.735
1861.9348,100.725
1862.8990,100.701
1863.8633,100.665
1864.8275,100.621
1865.7917,100.577
1866.7560,100.544
1867.7202,100.547
1868.6844,100.601
1869.6487,100.684
1870.6129,100.754
1871.5771,100.787
1872.5414,100.792
1873.5056,100.787
1874.4698,100.783
1875.4341,100.782
1876.3983,100.781
1877.3625,100.78
1878.3268,100.778
1879.2910,100.777
1880.2552,100.776
1881.2195,100.773
1882.1837,100.765
1883.1479,100.752
1884.1122,100.737
1885.0764,100.723
1886.0406,100.715
1887.0049,100.713
1887.9691,100.716
1888.9333,100.721
1889.8976,100.723
1890.8618,100.718
1891.8260,100.705
1892.7903,100.688
1893.7545,100.676
1894.7188,100.674
1895.6830,100.684
1896.6472,100.701
1897.6115,100.716
1898.5757,100.723
1899.5399,100.72
1900.5042,100.709
1901.4684,100.695
1902.4326,100.68
1903.3969,100.667
1904.3611,100.651
1905.3253,100.632
1906.2896,100.609
1907.2538,100.586
1908.2180,100.57
1909.1823,100.566
1910.1465,100.574
1911.1107,100.588
1912.0750,100.601
1913.0392,100.611
1914.0034,100.623
1914.9677,100.638
1915.9319,100.651
1916.8961,100.657
1917.8604,100.648
1918.8246,100.62
1919.7888,100.577
1920.7531,100.533
1921.7173,100.503
1922.6815,100.499
1923.6458,100.52
1924.6100,100.554
1925.5742,100.585
1926.5385,100.606
1927.5027,100.615
1928.4669,100.617
1929.4312,100.614
1930.3954,100.61
1931.3596,100.607
1932.3239,100.607
1933.2881,100.612
1934.2523,100.621
1935.2166,100.633
1936.1808,100.643
1937.1450,100.647
1938.1093,100.644
1939.0735,100.635
1940.0377,100.62
1941.0020,100.604
1941.9662,100.592
1942.9304,100.588
1943.8947,100.594
1944.8589,100.605
1945.8231,100.622
1946.7874,100.643
1947.7516,100.667
1948.7158,100.692
1949.6801,100.711
1950.6443,100.723
1951.6085,100.728
1952.5728,100.73
1953.5370,100.734
1954.5012,100.741
1955.4655,100.752
1956.4297,100.763
1957.3939,100.773
1958.3582,100.78
1959.3224,100.785
1960.2866,100.79
1961.2509,100.792
1962.2151,100.79
1963.1793,100.783
1964.1436,100.772
1965.1078,100.761
1966.0720,100.756
1967.0363,100.762
1968.0005,100.78
1968.9647,100.804
1969.9290,100.828
1970.8932,100.846
1971.8574,100.857
1972.8217,100.86
1973.7859,100.859
1974.7501,100.856
1975.7144,100.853
1976.6786,100.851
1977.6428,100.851
1978.6071,100.852
1979.5713,100.853
1980.5355,100.855
1981.4998,100.856
1982.4640,100.856
1983.4282,100.853
1984.3925,100.846
1985.3567,100.835
1986.3209,100.822
1987.2852,100.809
1988.2494,100.797
1989.2136,100.787
1990.1779,100.782
1991.1421,100.781
1992.1063,100.786
1993.0706,100.793
1994.0348,100.798
1994.9990,100.8
1995.9633,100.799
1996.9275,100.796
1997.8917,100.793
1998.8560,100.792
1999.8202,100.791
2000.7844,100.791
2001.7487,100.79
2002.7129,100.787
2003.6771,100.781
2004.6414,100.773
2005.6056,100.765
2006.5698,100.757
2007.5341,100.751
2008.4983,100.746
2009.4625,100.744
2010.4268,100.743
2011.3910,100.741
2012.3552,100.735
2013.3195,100.724
2014.2837,100.708
2015.2479,100.69
2016.2122,100.674
2017.1764,100.666
2018.1406,100.666
2019.1049,100.671
2020.0691,100.678
2021.0333,100.683
2021.9976,100.685
2022.9618,100.686
2023.9260,100.686
2024.8903,100.686
2025.8545,100.686
2026.8187,100.685
2027.7830,100.684
2028.7472,100.681
2029.7114,100.678
2030.6757,100.674
2031.6399,100.67
2032.6041,100.667
2033.5684,100.667
2034.5326,100.668
2035.4968,100.671
2036.4611,100.674
2037.4253,100.674
2038.3895,100.67
2039.3538,100.663
2040.3180,100.657
2041.2822,100.655
2042.2465,100.658
2043.2107,100.667
2044.1749,100.678
2045.1392,100.688
2046.1034,100.695
2047.0676,100.697
2048.0320,100.694
2048.9961,100.69
2049.9604,100.684
2050.9246,100.68
2051.8889,100.677
2052.8530,100.676
2053.8174,100.677
2054.7815,100.678
2055.7458,100.68
2056.7100,100.682
2057.6743,100.683
2058.6384,100.682
2059.6028,100.678
2060.5669,100.671
2061.5313,100.662
2062.4954,100.653
2063.4597,100.648
2064.4238,100.649
2065.3882,100.656
2066.3523,100.668
2067.3167,100.68
2068.2808,100.688
2069.2451,100.692
2070.2092,100.692
2071.1736,100.689
2072.1377,100.686
2073.1021,100.684
2074.0662,100.683
2075.0305,100.683
2075.9946,100.682
2076.9590,100.679
2077.9231,100.677
2078.8875,100.675
2079.8516,100.675
2080.8159,100.676
2081.7800,100.678
2082.7444,100.679
2083.7085,100.679
2084.6729,100.678
2085.6370,100.677
2086.6013,100.677
2087.5654,100.677
2088.5298,100.676
2089.4939,100.675
2090.4583,100.673
2091.4224,100.671
2092.3867,100.669
2093.3508,100.668
2094.3152,100.668
2095.2793,100.669
2096.2437,100.67
2097.2078,100.671
2098.1721,100.672
2099.1362,100.672
2100.1006,100.67
2101.0647,100.668
2102.0291,100.665
2102.9932,100.663
2103.9575,100.66
2104.9216,100.659
2105.8860,100.656
2106.8501,100.653
2107.8145,100.648
2108.7786,100.641
2109.7429,100.633
2110.7070,100.626
2111.6714,100.62
2112.6355,100.618
2113.5999,100.619
2114.5640,100.623
2115.5283,100.629
2116.4924,100.635
2117.4568,100.639
2118.4209,100.64
2119.3853,100.638
2120.3494,100.633
2121.3137,100.627
2122.2778,100.621
2123.2422,100.615
2124.2063,100.609
2125.1707,100.605
2126.1348,100.604
2127.0991,100.606
2128.0632,100.611
2129.0276,100.618
2129.9917,100.625
2130.9561,100.629
2131.9202,100.628
2132.8845,100.623
2133.8486,100.614
2134.8130,100.607
2135.7771,100.605
2136.7415,100.608
2137.7056,100.615
2138.6699,100.625
2139.6340,100.634
2140.5984,100.639
2141.5625,100.642
2142.5269,100.641
2143.4910,100.641
2144.4553,100.64
2145.4194,100.642
2146.3838,100.644
2147.3479,100.646
2148.3123,100.648
2149.2764,100.648
2150.2407,100.647
2151.2048,100.643
2152.1692,100.638
2153.1333,100.632
2154.0977,100.627
2155.0618,100.625
2156.0261,100.625
2156.9902,100.628
2157.9546,100.632
2158.9187,100.636
2159.8831,100.639
2160.8472,100.642
2161.8115,100.644
2162.7756,100.645
2163.7400,100.645
2164.7041,100.643
2165.6685,100.639
2166.6326,100.633
2167.5969,100.625
2168.5610,100.618
2169.5254,100.612
2170.4895,100.608
2171.4539,100.606
2172.4180,100.605
2173.3823,100.604
2174.3464,100.602
2175.3108,100.599
2176.2749,100.597
2177.2393,100.595
2178.2034,100.594
2179.1677,100.593
2180.1318,100.59
2181.0962,100.585
2182.0603,100.577
2183.0247,100.568
2183.9888,100.56
2184.9531,100.555
2185.9172,100.553
2186.8816,100.555
2187.8457,100.559
2188.8101,100.563
2189.7742,100.566
2190.7385,100.566
2191.7026,100.565
2192.6670,100.561
2193.6311,100.557
2194.5955,100.553
2195.5596,100.55
2196.5239,100.548
2197.4880,100.546
2198.4524,100.542
2199.4165,100.536
2200.3809,100.528
2201.3450,100.52
2202.3093,100.513
2203.2734,100.51
2204.2378,100.509
2205.2019,100.51
2206.1663,100.51
2207.1304,100.508
2208.0947,100.505
2209.0588,100.501
2210.0232,100.496
2210.9873,100.49
2211.9517,100.483
2212.9158,100.475
2213.8801,100.467
2214.8442,100.461
2215.8086,100.457
2216.7727,100.454
2217.7371,100.451
2218.7012,100.447
2219.6655,100.441
2220.6296,100.434
2221.5940,100.427
2222.5581,100.422
2223.5225,100.419
2224.4866,100.417
2225.4509,100.415
2226.4150,100.411
2227.3794,100.403
2228.3435,100.393
2229.3079,100.38
2230.2720,100.367
2231.2363,100.353
2232.2004,100.342
2233.1648,100.334
2234.1289,100.329
2235.0933,100.326
2236.0574,100.325
2237.0217,100.323
2237.9858,100.319
2238.9502,100.312
2239.9143,100.302
2240.8787,100.291
2241.8428,100.279
2242.8071,100.267
2243.7712,100.255
2244.7356,100.244
2245.6997,100.232
2246.6641,100.22
2247.6282,100.209
2248.5925,100.199
2249.5566,100.188
2250.5210,100.176
2251.4851,100.163
2252.4495,100.148
2253.4136,100.131
2254.3779,100.114
2255.3420,100.098
2256.3064,100.083
2257.2705,100.069
2258.2349,100.057
2259.1990,100.044
2260.1633,100.032
2261.1274,100.019
2262.0918,100.005
2263.0559,99.9923
2264.0203,99.9812
2264.9844,99.973
2265.9487,99.9679
2266.9128,99.9641
2267.8772,99.9588
2268.8413,99.9495
2269.8057,99.9361
2270.7698,99.9206
2271.7341,99.9067
2272.6982,99.8975
2273.6626,99.8941
2274.6267,99.8952
2275.5911,99.8986
2276.5552,99.9019
2277.5195,99.9044
2278.4836,99.9059
2279.4480,99.9071
2280.4121,99.9077
2281.3765,99.9069
2282.3406,99.9032
2283.3049,99.8949
2284.2690,99.8809
2285.2334,99.8608
2286.1975,99.8355
2287.1619,99.8068
2288.1260,99.777
2289.0903,99.7478
2290.0544,99.72
2291.0188,99.6937
2291.9829,99.6689
2292.9473,99.6464
2293.9114,99.6278
2294.8757,99.6147
2295.8398,99.6084
2296.8042,99.6093
2297.7683,99.6177
2298.7327,99.6344
2299.6968,99.6601
2300.6611,99.6948
2301.6252,99.7358
2302.5896,99.7778
2303.5537,99.8137
2304.5181,99.8377
2305.4822,99.8486
2306.4465,99.8514
2307.4106,99.8564
2308.3750,99.8754
2309.3391,99.9157
2310.3035,99.976
2311.2676,100.046
2312.2319,100.114
2313.1960,100.168
2314.1604,100.207
2315.1245,100.238
2316.0889,100.274
2317.0530,100.324
2318.0173,100.389
2318.9814,100.458
2319.9458,100.511
2320.9099,100.52
2321.8743,100.461
2322.8384,100.333
2323.8027,100.154
2324.7668,99.9681
2325.7312,99.8191
2326.6953,99.7382
2327.6597,99.7293
2328.6238,99.7675
2329.5881,99.8087
2330.5522,99.8094
2331.5166,99.7469
2332.4807,99.6295
2333.4451,99.4887
2334.4092,99.3608
2335.3735,99.2682
2336.3376,99.2109
2337.3020,99.1693
2338.2661,99.116
2339.2305,99.0339
2340.1946,98.9336
2341.1589,98.8647
2342.1230,98.9055
2343.0874,99.1025
2344.0515,99.3817
2345.0159,99.5664
2345.9800,99.5435
2346.9443,99.3619
2347.9084,99.1616
2348.8728,99.0618
2349.8369,99.1016
2350.8013,99.2323
2351.7654,99.3466
2352.7297,99.3532
2353.6938,99.223
2354.6582,99.0123
2355.6223,98.7968
2356.5867,98.6003
2357.5508,98.4202
2358.5151,98.2759
2359.4792,98.2059
2360.4436,98.2262
2361.4077,98.3172
2362.3721,98.4516
2363.3362,98.6204
2364.3005,98.8281
2365.2646,99.0737
2366.2290,99.3438
2367.1931,99.6191
2368.1575,99.8834
2369.1216,100.125
2370.0859,100.336
2371.0500,100.508
2372.0144,100.638
2372.9785,100.72
2373.9429,100.75
2374.9070,100.725
2375.8713,100.648
2376.8354,100.526
2377.7998,100.376
2378.7639,100.214
2379.7283,100.059
2380.6924,99.9249
2381.6567,99.8194
2382.6208,99.7446
2383.5852,99.6983
2384.5493,99.6754
2385.5137,99.6695
2386.4778,99.6742
2387.4421,99.6839
2388.4063,99.6942
2389.3706,99.7021
2390.3347,99.7066
2391.2991,99.7085
2392.2632,99.7095
2393.2275,99.7113
2394.1917,99.715
2395.1560,99.7205
2396.1201,99.7272
2397.0845,99.7348
2398.0486,99.7428
2399.0129,99.7507
2399.9771,99.758
2400.9414,99.7635
2401.9055,99.7662
2402.8699,99.7663
2403.8340,99.7656
2404.7983,99.7663
2405.7625,99.7698
2406.7268,99.7757
2407.6909,99.7821
2408.6553,99.7869
2409.6194,99.789
2410.5837,99.7896
2411.5479,99.7908
2412.5122,99.7944
2413.4763,99.8012
2414.4407,99.8104
2415.4048,99.8206
2416.3691,99.8308
2417.3333,99.8405
2418.2976,99.8491
2419.2617,99.8563
2420.2261,99.8614
2421.1902,99.8644
2422.1545,99.8661
2423.1187,99.8681
2424.0830,99.8722
2425.0471,99.8792
2426.0115,99.8892
2426.9756,99.9005
2427.9399,99.9114
2428.9041,99.9207
2429.8684,99.9278
2430.8325,99.9331
2431.7969,99.937
2432.7610,99.9399
2433.7253,99.9418
2434.6895,99.9426
2435.6538,99.943
2436.6179,99.9439
2437.5823,99.9469
2438.5464,99.9532
2439.5107,99.9632
2440.4749,99.9764
2441.4392,99.9912
2442.4033,100.006
2443.3677,100.018
2444.3318,100.027
2445.2961,100.031
2446.2603,100.033
2447.2246,100.032
2448.1887,100.031
2449.1531,100.03
2450.1172,100.031
2451.0815,100.032
2452.0457,100.035
2453.0100,100.039
2453.9741,100.043
2454.9385,100.046
2455.9026,100.047
2456.8669,100.046
2457.8311,100.044
2458.7954,100.042
2459.7595,100.041
2460.7239,100.042
2461.6880,100.046
2462.6523,100.05
2463.6165,100.053
2464.5808,100.057
2465.5449,100.06
2466.5093,100.064
2467.4734,100.066
2468.4377,100.067
2469.4019,100.068
2470.3662,100.071
2471.3303,100.076
2472.2947,100.086
2473.2588,100.098
2474.2231,100.109
2475.1873,100.117
2476.1516,100.121
2477.1157,100.123
2478.0801,100.124
2479.0442,100.126
2480.0085,100.131
2480.9727,100.138
2481.9370,100.144
2482.9011,100.15
2483.8655,100.155
2484.8296,100.159
2485.7939,100.163
2486.7581,100.167
2487.7224,100.172
2488.6865,100.176
2489.6509,100.181
2490.6150,100.184
2491.5793,100.186
2492.5435,100.186
2493.5078,100.184
2494.4719,100.183
2495.4363,100.184
2496.4004,100.188
2497.3647,100.196
2498.3289,100.207
2499.2932,100.216
2500.2573,100.222
2501.2217,100.223
2502.1858,100.22
2503.1501,100.216
2504.1143,100.213
2505.0786,100.214
2506.0427,100.217
2507.0071,100.221
2507.9712,100.223
2508.9355,100.223
2509.8997,100.219
2510.8640,100.214
2511.8281,100.208
2512.7925,100.203
2513.7566,100.2
2514.7209,100.201
2515.6851,100.205
2516.6494,100.211
2517.6135,100.217
2518.5779,100.22
2519.5420,100.219
2520.5063,100.215
2521.4705,100.21
2522.4348,100.208
2523.3989,100.209
2524.3633,100.213
2525.3274,100.217
2526.2917,100.22
2527.2559,100.219
2528.2202,100.216
2529.1843,100.211
2530.1487,100.205
2531.1128,100.199
2532.0771,100.195
2533.0413,100.192
2534.0056,100.19
2534.9697,100.19
2535.9341,100.189
2536.8982,100.188
2537.8625,100.186
2538.8267,100.185
2539.7910,100.186
2540.7551,100.189
2541.7195,100.194
2542.6836,100.201
2543.6479,100.206
2544.6121,100.21
2545.5764,100.211
2546.5405,100.212
2547.5049,100.213
2548.4690,100.215
2549.4333,100.217
2550.3975,100.22
2551.3618,100.224
2552.3259,100.227
2553.2903,100.231
2554.2544,100.235
2555.2188,100.24
2556.1829,100.246
2557.1472,100.252
2558.1113,100.26
2559.0757,100.268
2560.0398,100.275
2561.0042,100.279
2561.9683,100.279
2562.9326,100.274
2563.8967,100.268
2564.8611,100.263
2565.8252,100.263
2566.7896,100.271
2567.7537,100.284
2568.7180,100.3
2569.6821,100.314
2570.6465,100.322
2571.6106,100.324
2572.5750,100.321
2573.5391,100.316
2574.5034,100.313
2575.4675,100.314
2576.4319,100.319
2577.3960,100.326
2578.3604,100.333
2579.3245,100.339
2580.2888,100.344
2581.2529,100.35
2582.2173,100.357
2583.1814,100.364
2584.1458,100.369
2585.1099,100.372
2586.0742,100.371
2587.0383,100.368
2588.0027,100.364
2588.9668,100.363
2589.9312,100.364
2590.8953,100.369
2591.8596,100.376
2592.8237,100.383
2593.7881,100.389
2594.7522,100.394
2595.7166,100.397
2596.6807,100.4
2597.6450,100.403
2598.6091,100.408
2599.5735,100.414
2600.5376,100.421
2601.5020,100.426
2602.4661,100.428
2603.4304,100.428
2604.3945,100.426
2605.3589,100.423
2606.3230,100.423
2607.2874,100.426
2608.2515,100.431
2609.2158,100.438
2610.1799,100.445
2611.1443,100.451
2612.1084,100.454
2613.0728,100.457
2614.0369,100.46
2615.0012,100.464
2615.9653,100.469
2616.9297,100.474
2617.8938,100.476
2618.8582,100.476
2619.8223,100.473
2620.7866,100.467
2621.7507,100.463
2622.7151,100.462
2623.6792,100.467
2624.6436,100.478
2625.6077,100.494
2626.5720,100.51
2627.5361,100.523
2628.5005,100.532
2629.4646,100.535
2630.4290,100.535
2631.3931,100.534
2632.3574,100.535
2633.3215,100.539
2634.2859,100.544
2635.2500,100.55
2636.2144,100.555
2637.1785,100.56
2638.1428,100.567
2639.1069,100.576
2640.0713,100.587
2641.0354,100.599
2641.9998,100.609
2642.9639,100.616
2643.9282,100.62
2644.8923,100.624
2645.8567,100.628
2646.8208,100.633
2647.7852,100.637
2648.7493,100.639
2649.7136,100.639
2650.6777,100.636
2651.6421,100.633
2652.6062,100.632
2653.5706,100.636
2654.5347,100.643
2655.4990,100.652
2656.4631,100.662
2657.4275,100.67
2658.3916,100.676
2659.3560,100.681
2660.3201,100.685
2661.2844,100.69
2662.2485,100.696
2663.2129,100.705
2664.1770,100.714
2665.1414,100.724
2666.1055,100.733
2667.0698,100.741
2668.0339,100.749
2668.9983,100.757
2669.9624,100.766
2670.9268,100.777
2671.8909,100.789
2672.8552,100.801
2673.8193,100.812
2674.7837,100.821
2675.7478,100.828
2676.7122,100.831
2677.6763,100.83
2678.6406,100.825
2679.6047,100.818
2680.5691,100.812
2681.5332,100.809
2682.4976,100.81
2683.4617,100.816
2684.4260,100.825
2685.3901,100.833
2686.3545,100.838
2687.3186,100.84
2688.2830,100.839
2689.2471,100.837
2690.2114,100.837
2691.1755,100.84
2692.1399,100.848
2693.1040,100.86
2694.0684,100.875
2695.0325,100.891
2695.9968,100.904
2696.9609,100.913
2697.9253,100.916
2698.8894,100.916
2699.8538,100.914
2700.8179,100.912
2701.7822,100.91
2702.7463,100.909
2703.7107,100.908
2704.6748,100.907
2705.6392,100.903
2706.6033,100.897
2707.5676,100.889
2708.5317,100.881
2709.4961,100.874
2710.4602,100.872
2711.4246,100.872
2712.3887,100.873
2713.3530,100.871
2714.3171,100.862
2715.2815,100.849
2716.2456,100.835
2717.2100,100.824
2718.1741,100.82
2719.1384,100.822
2720.1025,100.825
2721.0669,100.825
2722.0310,100.819
2722.9954,100.809
2723.9595,100.794
2724.9238,100.779
2725.8879,100.764
2726.8523,100.751
2727.8164,100.74
2728.7808,100.732
2729.7449,100.725
2730.7092,100.72
2731.6733,100.719
2732.6377,100.723
2733.6018,100.734
2734.5662,100.748
2735.5303,100.764
2736.4946,100.777
2737.4587,100.785
2738.4231,100.791
2739.3872,100.797
2740.3516,100.808
2741.3157,100.825
2742.2800,100.849
2743.2441,100.877
2744.2085,100.907
2745.1726,100.936
2746.1370,100.961
2747.1011,100.981
2748.0654,100.994
2749.0295,101.001
2749.9939,101.005
2750.9580,101.009
2751.9224,101.014
2752.8865,101.022
2753.8508,101.029
2754.8149,101.033
2755.7793,101.033
2756.7434,101.03
2757.7078,101.024
2758.6719,101.017
2759.6362,101.01
2760.6003,101.005
2761.5647,101.002
2762.5288,101.003
2763.4932,101.005
2764.4573,101.007
2765.4216,101.005
2766.3857,100.999
2767.3501,100.99
2768.3142,100.981
2769.2786,100.976
2770.2427,100.974
2771.2070,100.972
2772.1711,100.964
2773.1355,100.947
2774.0996,100.923
2775.0640,100.895
2776.0281,100.87
2776.9924,100.848
2777.9565,100.828
2778.9209,100.803
2779.8850,100.771
2780.8494,100.731
2781.8135,100.686
2782.7778,100.644
2783.7419,100.608
2784.7063,100.581
2785.6704,100.561
2786.6348,100.542
2787.5989,100.522
2788.5632,100.497
2789.5273,100.468
2790.4917,100.437
2791.4558,100.407
2792.4202,100.379
2793.3843,100.353
2794.3486,100.326
2795.3127,100.299
2796.2771,100.271
2797.2412,100.24
2798.2056,100.208
2799.1697,100.173
2800.1340,100.134
2801.0981,100.086
2802.0625,100.033
2803.0266,99.9759
2803.9910,99.9194
2804.9551,99.8656
2805.9194,99.8139
2806.8835,99.7615
2807.8479,99.7053
2808.8120,99.6435
2809.7764,99.5761
2810.7405,99.5039
2811.7048,99.4271
2812.6689,99.3452
2813.6333,99.2572
2814.5974,99.1631
2815.5618,99.0637
2816.5259,98.9604
2817.4902,98.8539
2818.4543,98.7435
2819.4187,98.6273
2820.3828,98.5028
2821.3472,98.3684
2822.3113,98.2235
2823.2756,98.069
2824.2397,97.9062
2825.2041,97.7363
2826.1682,97.5594
2827.1326,97.374
2828.0967,97.1771
2829.0610,96.9651
2830.0251,96.7354
2830.9895,96.4866
2831.9536,96.2197
2832.9180,95.9362
2833.8821,95.637
2834.8464,95.3212
2835.8105,94.9865
2836.7749,94.6302
2837.7390,94.2509
2838.7034,93.8485
2839.6675,93.4237
2840.6318,92.9755
2841.5959,92.5011
2842.5603,91.9972
2843.5244,91.4634
2844.4888,90.9066
2845.4529,90.3426
2846.4172,89.7946
2847.3813,89.2877
2848.3457,88.8411
2849.3098,88.463
2850.2742,88.1496
2851.2383,87.889
2852.2026,87.6676
2853.1667,87.4751
2854.1311,87.307
2855.0952,87.1619
2856.0596,87.0381
2857.0237,86.9309
2857.9880,86.8319
2858.9521,86.7317
2859.9165,86.6218
2860.8806,86.4973
2861.8450,86.3561
2862.8091,86.199
2863.7734,86.0284
2864.7375,85.8487
2865.7019,85.6662
2866.6660,85.4891
2867.6304,85.3263
2868.5945,85.1867
2869.5588,85.0767
2870.5229,84.9997
2871.4873,84.9547
2872.4514,84.9369
2873.4158,84.9383
2874.3799,84.95
2875.3442,84.9633
2876.3083,84.9709
2877.2727,84.9666
2878.2368,84.9457
2879.2012,84.9054
2880.1653,84.8463
2881.1296,84.7737
2882.0938,84.6965
2883.0581,84.625
2884.0222,84.5667
2884.9866,84.5226
2885.9507,84.4866
2886.9150,84.4467
2887.8792,84.3896
2888.8435,84.3059
2889.8076,84.1951
2890.7720,84.066
2891.7361,83.9328
2892.7004,83.8056
2893.6646,83.6809
2894.6289,83.5389
2895.5930,83.3512
2896.5574,83.0973
2897.5215,82.7807
2898.4858,82.4344
2899.4500,82.1088
2900.4143,81.8493
2901.3784,81.6747
2902.3428,81.5692
2903.3069,81.4923
2904.2712,81.3993
2905.2354,81.2592
2906.1997,81.0619
2907.1638,80.8135
2908.1282,80.5264
2909.0923,80.2121
2910.0566,79.8793
2911.0208,79.5362
2911.9851,79.1919
2912.9492,78.8562
2913.9136,78.5368
2914.8777,78.2385
2915.8420,77.9637
2916.8062,77.7138
2917.7705,77.4912
2918.7346,77.2993
2919.6990,77.1424
2920.6631,77.0243
2921.6274,76.9472
2922.5916,76.9114
2923.5559,76.9153
2924.5200,76.9562
2925.4844,77.0324
2926.4485,77.1436
2927.4128,77.2907
2928.3770,77.4739
2929.3413,77.6909
2930.3054,77.9363
2931.2698,78.2031
2932.2339,78.4852
2933.1982,78.779
2934.1624,79.0826
2935.1267,79.3948
2936.0908,79.7119
2937.0552,80.0279
2938.0193,80.3348
2938.9836,80.6256
2939.9478,80.8956
2940.9121,81.1438
2941.8762,81.3716
2942.8406,81.5806
2943.8047,81.7695
2944.7690,81.9331
2945.7332,82.0628
2946.6975,82.149
2947.6616,82.1859
2948.6260,82.1741
2949.5901,82.1214
2950.5544,82.04
2951.5186,81.9432
2952.4829,81.841
2953.4470,81.7392
2954.4114,81.6406
2955.3755,81.5474
2956.3398,81.4635
2957.3040,81.3946
2958.2683,81.3461
2959.2324,81.3209
2960.1968,81.3178
2961.1609,81.3322
2962.1252,81.3586
2963.0894,81.3939
2964.0537,81.438
2965.0178,81.4939
2965.9822,81.5648
2966.9463,81.6536
2967.9106,81.7629
2968.8748,81.8967
2969.8391,82.0612
2970.8032,82.2633
2971.7676,82.5066
2972.7317,82.7887
2973.6960,83.1005
2974.6602,83.429
2975.6245,83.7625
2976.5886,84.094
2977.5530,84.4226
2978.5171,84.751
2979.4814,85.0821
2980.4456,85.4136
2981.4099,85.7357
2982.3740,86.032
2983.3384,86.2853
2984.3025,86.4899
2985.2668,86.6617
2986.2310,86.8411
2987.1953,87.0824
2988.1594,87.431
2989.1238,87.8995
2990.0879,88.4578
2991.0522,89.043
2992.0164,89.5865
2992.9807,90.0426
2993.9448,90.4039
2994.9092,90.6963
2995.8733,90.9595
2996.8376,91.2261
2997.8018,91.5099
2998.7661,91.808
2999.7302,92.11
3000.6946,92.4077
3001.6587,92.699
3002.6230,92.9864
3003.5872,93.2738
3004.5515,93.563
3005.5156,93.8523
3006.4800,94.1371
3007.4441,94.4113
3008.4084,94.6699
3009.3726,94.9119
3010.3369,95.1415
3011.3010,95.366
3012.2654,95.5918
3013.2295,95.8197
3014.1938,96.044
3015.1580,96.2557
3016.1223,96.4477
3017.0864,96.619
3018.0508,96.7746
3019.0149,96.9214
3019.9792,97.0642
3020.9434,97.204
3021.9077,97.3387
3022.8718,97.467
3023.8362,97.5895
3024.8003,97.7082
3025.7646,97.8242
3026.7288,97.9359
3027.6931,98.0399
3028.6572,98.1338
3029.6216,98.2182
3030.5857,98.2975
3031.5500,98.3769
3032.5142,98.4597
3033.4785,98.5454
3034.4426,98.6312
3035.4070,98.714
3036.3711,98.7917
3037.3354,98.8639
3038.2996,98.9293
3039.2639,98.9857
3040.2280,99.0297
3041.1924,99.0595
3042.1565,99.0765
3043.1208,99.0854
3044.0850,99.0931
3045.0493,99.1058
3046.0134,99.1264
3046.9778,99.1536
3047.9419,99.1824
3048.9063,99.2061
3049.8704,99.2191
3050.8347,99.2198
3051.7988,99.211
3052.7632,99.1987
3053.7273,99.1894
3054.6917,99.1637
3055.6558,99.1409
3056.6201,99.1262
3057.5842,99.1161
3058.5486,99.1061
3059.5127,99.0913
3060.4771,99.0678
3061.4412,99.0338
3062.4055,98.9911
3063.3696,98.9458
3064.3340,98.9057
3065.2981,98.8767
3066.2625,98.8599
3067.2266,98.8503
3068.1909,98.8405
3069.1550,98.8246
3070.1194,98.8009
3071.0835,98.7713
3072.0479,98.7388
3073.0120,98.7046
3073.9763,98.6676
3074.9404,98.6263
3075.9048,98.5807
3076.8689,98.5334
3077.8333,98.4883
3078.7974,98.4483
3079.7617,98.4143
3080.7258,98.385
3081.6902,98.3583
3082.6543,98.3325
3083.6187,98.3063
3084.5828,98.2787
3085.5471,98.2489
3086.5112,98.2162
3087.4756,98.1804
3088.4397,98.1411
3089.4041,98.0973
3090.3682,98.0474
3091.3325,97.9895
3092.2966,97.9233
3093.2610,97.8505
3094.2251,97.7745
3095.1895,97.6992
3096.1536,97.6269
3097.1179,97.5582
3098.0820,97.4926
3099.0464,97.4298
3100.0105,97.3701
3100.9749,97.3135
3101.9390,97.2591
3102.9033,97.205
3103.8674,97.1497
3104.8318,97.0929
3105.7959,97.0355
3106.7603,96.9787
3107.7244,96.9219
3108.6887,96.8626
3109.6528,96.7979
3110.6172,96.7261
3111.5813,96.6483
3112.5457,96.5682
3113.5098,96.4898
3114.4741,96.4161
3115.4382,96.3478
3116.4026,96.2842
3117.3667,96.2245
3118.3311,96.1685
3119.2952,96.1164
3120.2595,96.0676
3121.2236,96.0203
3122.1880,95.9721
3123.1521,95.9211
3124.1165,95.867
3125.0806,95.8102
3126.0449,95.7511
3127.0090,95.6889
3127.9734,95.6219
3128.9375,95.5492
3129.9019,95.4723
3130.8660,95.3953
3131.8303,95.3236
3132.7944,95.2606
3133.7588,95.2056
3134.7229,95.1541
3135.6873,95.1001
3136.6514,95.039
3137.6157,94.9701
3138.5798,94.8957
3139.5442,94.8198
3140.5083,94.7454
3141.4727,94.674
3142.4368,94.6048
3143.4011,94.5361
3144.3652,94.4662
3145.3296,94.3943
3146.2937,94.3217
3147.2581,94.2511
3148.2222,94.1852
3149.1865,94.125
3150.1506,94.0684
3151.1150,94.0107
3152.0791,93.9473
3153.0435,93.8763
3154.0076,93.8002
3154.9719,93.7235
3155.9360,93.6493
3156.9004,93.5772
3157.8645,93.5033
3158.8289,93.4244
3159.7930,93.3406
3160.7573,93.2567
3161.7214,93.1785
3162.6858,93.1088
3163.6499,93.0452
3164.6143,92.9819
3165.5784,92.9136
3166.5427,92.8398
3167.5068,92.7646
3168.4712,92.6931
3169.4353,92.6727
3170.3997,92.6095
3171.3638,92.5422
3172.3281,92.4655
3173.2922,92.379
3174.2566,92.2875
3175.2207,92.1983
3176.1851,92.1176
3177.1492,92.047
3178.1135,91.9838
3179.0776,91.9225
3180.0420,91.8583
3181.0061,91.7893
3181.9705,91.717
3182.9346,91.6455
3183.8989,91.5789
3184.8630,91.519
3185.8274,91.4644
3186.7915,91.4105
3187.7559,91.3526
3188.7200,91.288
3189.6843,91.2175
3190.6484,91.1445
3191.6128,91.0728
3192.5769,91.0039
3193.5413,90.9369
3194.5054,90.8694
3195.4697,90.8002
3196.4338,90.7302
3197.3982,90.6624
3198.3623,90.5999
3199.3267,90.544
3200.2908,90.4938
3201.2551,90.447
3202.2192,90.4007
3203.1836,90.3522
3204.1477,90.2992
3205.1121,90.2408
3206.0762,90.1774
3207.0405,90.1113
3208.0046,90.0455
3208.9690,89.9823
3209.9331,89.9218
3210.8975,89.8627
3211.8616,89.8036
3212.8259,89.7451
3213.7900,89.6899
3214.7544,89.6406
3215.7185,89.5971
3216.6829,89.5562
3217.6470,89.5125
3218.6113,89.4622
3219.5754,89.4055
3220.5398,89.346
3221.5039,89.2887
3222.4683,89.2368
3223.4324,89.1906
3224.3967,89.1478
3225.3608,89.1059
3226.3252,89.0631
3227.2893,89.0193
3228.2537,88.975
3229.2178,88.9314
3230.1821,88.8893
3231.1462,88.8488
3232.1106,88.8095
3233.0747,88.77
3234.0391,88.7283
3235.0032,88.6832
3235.9675,88.6346
3236.9316,88.5837
3237.8960,88.5332
3238.8601,88.4849
3239.8245,88.44
3240.7886,88.3983
3241.7529,88.3596
3242.7170,88.3237
3243.6814,88.2906
3244.6455,88.2601
3245.6099,88.2307
3246.5740,88.2
3247.5383,88.166
3248.5024,88.1282
3249.4668,88.0875
3250.4309,88.0461
3251.3953,88.0055
3252.3594,87.9658
3253.3237,87.9256
3254.2878,87.8832
3255.2522,87.8389
3256.2163,87.7946
3257.1807,87.7541
3258.1448,87.7196
3259.1091,87.6907
3260.0732,87.6636
3261.0376,87.634
3262.0017,87.5992
3262.9661,87.5605
3263.9302,87.522
3264.8945,87.4872
3265.8586,87.4567
3266.8230,87.4269
3267.7871,87.3923
3268.7515,87.3491
3269.7156,87.2981
3270.6799,87.2441
3271.6440,87.1937
3272.6084,87.1516
3273.5725,87.1189
3274.5369,87.0934
3275.5010,87.0718
3276.4653,87.0505
3277.4294,87.0267
3278.3938,86.9983
3279.3579,86.964
3280.3223,86.9241
3281.2864,86.882
3282.2507,86.8424
3283.2148,86.8102
3284.1792,86.7867
3285.1433,86.769
3286.1077,86.7512
3287.0718,86.7277
3288.0361,86.6964
3289.0002,86.6587
3289.9646,86.619
3290.9287,86.5814
3291.8931,86.5481
3292.8572,86.5196
3293.8215,86.4949
3294.7856,86.4725
3295.7500,86.4505
3296.7141,86.4261
3297.6785,86.3966
3298.6426,86.3609
3299.6069,86.3205
3300.5710,86.2793
3301.5354,86.2422
3302.4995,86.212
3303.4639,86.1887
3304.4280,86.1697
3305.3923,86.1517
3306.3564,86.1329
3307.3208,86.1131
3308.2849,86.093
3309.2493,86.0735
3310.2134,86.0547
3311.1777,86.0364
3312.1418,86.0181
3313.1062,85.9987
3314.0703,85.9764
3315.0347,85.9488
3315.9988,85.9149
3316.9631,85.8758
3317.9272,85.8359
3318.8916,85.8015
3319.8557,85.7774
3320.8201,85.7646
3321.7842,85.7586
3322.7485,85.7515
3323.7126,85.7358
3324.6770,85.7085
3325.6411,85.6723
3326.6055,85.6342
3327.5696,85.6015
3328.5339,85.578
3329.4980,85.5626
3330.4624,85.5507
3331.4265,85.5377
3332.3909,85.5218
3333.3550,85.5044
3334.3193,85.4884
3335.2834,85.4758
3336.2478,85.4657
3337.2119,85.4552
3338.1763,85.4411
3339.1404,85.4226
3340.1047,85.4015
3341.0688,85.3807
3342.0332,85.3626
3342.9973,85.3477
3343.9617,85.3354
3344.9258,85.3255
3345.8901,85.3189
3346.8542,85.3168
3347.8186,85.3188
3348.7827,85.3216
3349.7471,85.3197
3350.7112,85.3077
3351.6755,85.2837
3352.6396,85.2509
3353.6040,85.2159
3354.5681,85.186
3355.5325,85.1659
3356.4966,85.1559
3357.4609,85.1526
3358.4250,85.1509
3359.3894,85.1468
3360.3535,85.1382
3361.3179,85.1245
3362.2820,85.1072
3363.2463,85.089
3364.2104,85.0743
3365.1748,85.0688
3366.1389,85.077
3367.1033,85.0997
3368.0674,85.1322
3369.0317,85.1658
3369.9958,85.1913
3370.9602,85.2028
3371.9243,85.1996
3372.8887,85.1854
3373.8528,85.1656
3374.8171,85.1452
3375.7813,85.1272
3376.7456,85.1142
3377.7097,85.1087
3378.6741,85.1125
3379.6382,85.125
3380.6025,85.1422
3381.5667,85.1574
3382.5310,85.1643
3383.4951,85.1605
3384.4595,85.1489
3385.4236,85.1362
3386.3879,85.1293
3387.3521,85.1323
3388.3164,85.1453
3389.2805,85.1655
3390.2449,85.1893
3391.2090,85.2139
3392.1733,85.2386
3393.1375,85.2652
3394.1018,85.2966
3395.0659,85.3357
3396.0303,85.3819
3396.9944,85.43
3397.9587,85.4701
3398.9229,85.4927
3399.8872,85.4938
3400.8513,85.4779
3401.8157,85.4568
3402.7798,85.4434
3403.7441,85.4465
3404.7083,85.4676
3405.6726,85.5024
3406.6367,85.5452
3407.6011,85.5911
3408.5652,85.637
3409.5295,85.6801
3410.4937,85.7165
3411.4580,85.7431
3412.4221,85.759
3413.3865,85.7672
3414.3506,85.7732
3415.3149,85.7831
3416.2791,85.8
3417.2434,85.8249
3418.2075,85.8578
3419.1719,85.8991
3420.1360,85.9492
3421.1003,86.0067
3422.0645,86.0673
3423.0288,86.1252
3423.9929,86.1759
3424.9573,86.2188
3425.9214,86.2576
3426.8857,86.2986
3427.8499,86.3474
3428.8142,86.4062
3429.7783,86.4727
3430.7427,86.5414
3431.7068,86.6065
3432.6711,86.6642
3433.6353,86.7137
3434.5996,86.7565
3435.5637,86.7951
3436.5281,86.8315
3437.4922,86.8664
3438.4565,86.8999
3439.4207,86.9314
3440.3850,86.9606
3441.3491,86.988
3442.3135,87.0153
3443.2776,87.0452
3444.2419,87.0813
3445.2061,87.1274
3446.1704,87.1856
3447.1345,87.2556
3448.0989,87.3336
3449.0630,87.4146
3450.0273,87.4941
3450.9915,87.5693
3451.9558,87.6375
3452.9199,87.6967
3453.8843,87.7461
3454.8484,87.7876
3455.8127,87.8257
3456.7769,87.8659
3457.7412,87.912
3458.7053,87.9644
3459.6697,88.0204
3460.6338,88.0759
3461.5981,88.1281
3462.5623,88.1778
3463.5266,88.2291
3464.4907,88.2878
3465.4551,88.3581
3466.4192,88.4397
3467.3835,88.5265
3468.3477,88.6088
3469.3120,88.6771
3470.2761,88.7277
3471.2405,88.7649
3472.2046,88.7993
3473.1689,88.8426
3474.1331,88.9005
3475.0974,88.9696
3476.0615,89.0398
3477.0259,89.1011
3477.9900,89.15
3478.9543,89.192
3479.9185,89.2372
3480.8828,89.2945
3481.8469,89.3655
3482.8113,89.4434
3483.7754,89.5193
3484.7397,89.5879
3485.7039,89.6502
3486.6682,89.7111
3487.6323,89.7755
3488.5967,89.8447
3489.5608,89.9158
3490.5251,89.9846
3491.4893,90.049
3492.4536,90.1103
3493.4177,90.1724
3494.3821,90.2384
3495.3462,90.3078
3496.3105,90.3746
3497.2747,90.4306
3498.2390,90.4709
3499.2031,90.4988
3500.1675,90.5261
3501.1316,90.5704
3502.0959,90.6462
3503.0601,90.7539
3504.0244,90.8768
3504.9885,90.9925
3505.9529,91.0864
3506.9170,91.1574
3507.8813,91.2146
3508.8455,91.2706
3509.8098,91.3359
3510.7739,91.414
3511.7383,91.5014
3512.7024,91.5922
3513.6667,91.6812
3514.6309,91.7646
3515.5952,91.8388
3516.5593,91.901
3517.5237,91.9506
3518.4878,91.9904
3519.4521,92.0258
3520.4163,92.0633
3521.3806,92.1083
3522.3447,92.164
3523.3091,92.231
3524.2732,92.3088
3525.2375,92.3968
3526.2017,92.4953
3527.1660,92.6036
3528.1301,92.7175
3529.0945,92.8285
3530.0586,92.9278
3531.0229,93.0119
3531.9871,93.0848
3532.9514,93.1561
3533.9155,93.2364
3534.8799,93.3331
3535.8440,93.4463
3536.8083,93.5667
3537.7725,93.6778
3538.7368,93.7645
3539.7009,93.8197
3540.6653,93.848
3541.6294,93.8637
3542.5938,93.8887
3543.5579,93.9477
3544.5222,94.057
3545.4863,94.2101
3546.4507,94.3777
3547.4148,94.528
3548.3792,94.6504
3549.3433,94.7569
3550.3076,94.869
3551.2717,95.0019
3552.2361,95.1559
3553.2002,95.3157
3554.1646,95.4612
3555.1287,95.5809
3556.0930,95.6762
3557.0571,95.7558
3558.0215,95.8276
3558.9856,95.896
3559.9500,95.962
3560.9141,96.0255
3561.8784,96.0875
3562.8425,96.1484
3563.8069,96.2101
3564.7710,96.2849
3565.7354,96.406
3566.6995,96.6014
3567.6638,96.8405
3568.6279,97.0496
3569.5923,97.1898
3570.5564,97.2777
3571.5208,97.3484
3572.4849,97.4234
3573.4492,97.5048
3574.4133,97.5852
3575.3777,97.6579
3576.3418,97.7221
3577.3062,97.7808
3578.2703,97.8362
3579.2346,97.8871
3580.1987,97.9312
3581.1631,97.9696
3582.1272,98.0083
3583.0916,98.0539
3584.0557,98.1076
3585.0200,98.1682
3585.9841,98.2431
3586.9485,98.3413
3587.9126,98.4422
3588.8770,98.5005
3589.8411,98.4969
3590.8054,98.4531
3591.7695,98.4034
3592.7339,98.3709
3593.6980,98.3638
3594.6624,98.378
3595.6265,98.4004
3596.5908,98.4188
3597.5549,98.4345
3598.5193,98.4629
3599.4834,98.5201
3600.4478,98.6078
3601.4119,98.7089
3602.3762,98.8017
3603.3403,98.876
3604.3047,98.9349
3605.2688,98.9865
3606.2332,99.039
3607.1973,99.0987
3608.1616,99.1625
3609.1257,99.2151
3610.0901,99.2398
3611.0542,99.2342
3612.0186,99.2125
3612.9829,99.1945
3613.9470,99.1941
3614.9114,99.2102
3615.8755,99.2389
3616.8398,99.2727
3617.8040,99.3072
3618.7683,99.3404
3619.7324,99.3591
3620.6968,99.3395
3621.6609,99.2784
3622.6252,99.2103
3623.5894,99.1827
3624.5537,99.2201
3625.5178,99.3046
3626.4822,99.3891
3627.4463,99.4448
3628.4106,99.4889
3629.3748,99.5248
3630.3391,99.5129
3631.3032,99.4465
3632.2676,99.3685
3633.2317,99.3208
3634.1960,99.3125
3635.1602,99.3262
3636.1245,99.3377
3637.0886,99.3327
3638.0530,99.31
3639.0171,99.274
3639.9814,99.228
3640.9456,99.1735
3641.9099,99.116
3642.8740,99.0673
3643.8384,99.0366
3644.8025,99.0141
3645.7668,98.9601
3646.7310,98.8355
3647.6953,98.695
3648.6594,98.7035
3649.6238,98.8816
3650.5879,99.0333
3651.5522,99.0499
3652.5164,98.9807
3653.4807,98.8994
3654.4448,98.8346
3655.4092,98.7778
3656.3733,98.7131
3657.3376,98.6367
3658.3018,98.5594
3659.2661,98.5011
3660.2302,98.4762
3661.1946,98.482
3662.1587,98.5013
3663.1230,98.5188
3664.0872,98.5346
3665.0515,98.5579
3666.0156,98.5875
3666.9800,98.5998
3667.9441,98.5668
3668.9084,98.4953
3669.8726,98.4265
3670.8369,98.3885
3671.8010,98.3793
3672.7654,98.3855
3673.7295,98.3982
3674.6938,98.4314
3675.6580,98.5117
3676.6223,98.6175
3677.5864,98.6891
3678.5508,98.7067
3679.5149,98.6948
3680.4792,98.677
3681.4434,98.6595
3682.4077,98.6438
3683.3718,98.6401
3684.3362,98.6606
3685.3003,98.7001
3686.2646,98.7242
3687.2288,98.6915
3688.1931,98.6121
3689.1572,98.5633
3690.1216,98.595
3691.0857,98.6723
3692.0500,98.7484
3693.0142,98.8135
3693.9785,98.8765
3694.9426,98.9444
3695.9070,99.0196
3696.8711,99.1034
3697.8354,99.1965
3698.7996,99.2959
3699.7639,99.3949
3700.7280,99.4853
3701.6924,99.5581
3702.6565,99.604
3703.6208,99.6209
3704.5850,99.6212
3705.5493,99.6239
3706.5134,99.6378
3707.4778,99.6537
3708.4419,99.6607
3709.4063,99.6839
3710.3704,99.7897
3711.3347,99.9975
3712.2988,100.213
3713.2632,100.331
3714.2273,100.337
3715.1917,100.277
3716.1558,100.2
3717.1201,100.129
3718.0842,100.063
3719.0486,99.9919
3720.0127,99.9152
3720.9771,99.8407
3721.9412,99.7825
3722.9055,99.7532
3723.8696,99.7581
3724.8340,99.79
3725.7981,99.8295
3726.7625,99.8583
3727.7266,99.8726
3728.6909,99.8803
3729.6550,99.8856
3730.6194,99.8766
3731.5835,99.8301
3732.5479,99.7394
3733.5120,99.6515
3734.4763,99.6512
3735.4404,99.7535
3736.4048,99.8618
3737.3689,99.8963
3738.3333,99.883
3739.2974,99.9044
3740.2617,100.02
3741.2258,100.241
3742.1902,100.467
3743.1543,100.588
3744.1187,100.546
3745.0828,100.369
3746.0471,100.135
3747.0112,99.9194
3747.9756,99.7617
3748.9397,99.6749
3749.9041,99.6803
3750.8682,99.7854
3751.8325,99.9078
3752.7966,99.9411
3753.7610,99.8787
3754.7251,99.7841
3755.6895,99.71
3756.6536,99.6743
3757.6179,99.6762
3758.5820,99.7094
3759.5464,99.7576
3760.5105,99.7988
3761.4749,99.8222
3762.4390,99.8328
3763.4033,99.8399
3764.3674,99.8481
3765.3318,99.8567
3766.2959,99.8642
3767.2603,99.8712
3768.2244,99.8822
3769.1887,99.9026
3770.1528,99.9302
3771.1172,99.953
3772.0813,99.9593
3773.0457,99.9496
3774.0098,99.9344
3774.9741,99.9213
3775.9382,99.9065
3776.9026,99.8821
3777.8667,99.849
3778.8311,99.8181
3779.7952,99.7955
3780.7595,99.7766
3781.7236,99.7567
3782.6880,99.7384
3783.6521,99.7298
3784.6165,99.7393
3785.5806,99.7701
3786.5449,99.8164
3787.5090,99.8655
3788.4734,99.9052
3789.4375,99.9299
3790.4019,99.9396
3791.3660,99.9352
3792.3303,99.9134
3793.2944,99.8688
3794.2588,99.8027
3795.2229,99.7311
3796.1873,99.6791
3797.1514,99.664
3798.1157,99.6804
3799.0798,99.7035
3800.0442,99.7087
3801.0083,99.6917
3801.9727,99.6639
3802.9368,99.6412
3803.9011,99.6433
3804.8652,99.6865
3805.8296,99.7669
3806.7937,99.8541
3807.7581,99.9037
3808.7222,99.8925
3809.6865,99.8442
3810.6506,99.8116
3811.6150,99.8302
3812.5791,99.8872
3813.5435,99.9304
3814.5076,99.9097
3815.4719,99.8197
3816.4360,99.6991
3817.4004,99.5954
3818.3645,99.5388
3819.3289,99.5387
3820.2930,99.5837
3821.2573,99.6342
3822.2214,99.6401
3823.1858,99.5858
3824.1499,99.5051
3825.1143,99.4471
3826.0784,99.4415
3827.0427,99.4875
3828.0068,99.5615
3828.9712,99.6342
3829.9353,99.6855
3830.8997,99.712
3831.8638,99.7231
3832.8281,99.7297
3833.7922,99.7323
3834.7566,99.7169
3835.7207,99.6641
3836.6851,99.5723
3837.6492,99.4738
3838.6135,99.4159
3839.5776,99.4217
3840.5420,99.4806
3841.5061,99.5687
3842.4705,99.6608
3843.4346,99.7284
3844.3989,99.7461
3845.3630,99.7084
3846.3274,99.6414
3847.2915,99.5957
3848.2559,99.6212
3849.2200,99.7373
3850.1843,99.9126
3851.1484,100.076
3852.1128,100.183
3853.0769,100.261
3854.0413,100.284
3855.0054,100.172
3855.9697,99.9551
3856.9338,99.7482
3857.8982,99.6305
3858.8623,99.6121
3859.8267,99.65
3860.7908,99.6825
3861.7551,99.6727
3862.7192,99.6345
3863.6836,99.6139
3864.6477,99.6394
3865.6121,99.703
3866.5762,99.776
3867.5405,99.8282
3868.5046,99.8408
3869.4690,99.8178
3870.4331,99.7838
3871.3975,99.7626
3872.3616,99.7577
3873.3259,99.7598
3874.2900,99.7647
3875.2544,99.7767
3876.2185,99.7993
3877.1829,99.8264
3878.1470,99.844
3879.1113,99.843
3880.0754,99.831
3881.0398,99.8296
3882.0039,99.8566
3882.9683,99.9134
3883.9324,99.9832
3884.8967,100.039
3885.8608,100.056
3886.8252,100.03
3887.7893,99.9758
3888.7537,99.9165
3889.7178,99.8664
3890.6821,99.832
3891.6462,99.8148
3892.6106,99.8064
3893.5747,99.7964
3894.5391,99.7884
3895.5032,99.7941
3896.4675,99.8142
3897.4316,99.8335
3898.3960,99.8358
3899.3601,99.8196
3900.3245,99.7955
3901.2886,99.773
3902.2529,99.758
3903.2170,99.7551
3904.1814,99.7642
3905.1455,99.7768
3906.1099,99.7874
3907.0740,99.7997
3908.0383,99.8209
3909.0024,99.8514
3909.9668,99.8836
3910.9309,99.9072
3911.8953,99.916
3912.8594,99.9102
3913.8237,99.894
3914.7878,99.8739
3915.7522,99.8582
3916.7163,99.8545
3917.6807,99.8613
3918.6448,99.8648
3919.6091,99.85
3920.5732,99.8141
3921.5376,99.767
3922.5017,99.723
3923.4661,99.6937
3924.4302,99.6817
3925.3945,99.6786
3926.3586,99.6729
3927.3230,99.6603
3928.2871,99.6454
3929.2515,99.6385
3930.2156,99.6513
3931.1799,99.6914
3932.1440,99.7533
3933.1084,99.8174
3934.0725,99.8638
3935.0369,99.8847
3936.0010,99.8845
3936.9653,99.8714
3937.9294,99.8518
3938.8938,99.8291
3939.8579,99.807
3940.8223,99.7917
3941.7864,99.7903
3942.7507,99.8047
3943.7148,99.8281
3944.6792,99.8482
3945.6433,99.8542
3946.6077,99.8413
3947.5718,99.8126
3948.5361,99.7793
3949.5002,99.755
3950.4646,99.7479
3951.4287,99.7579
3952.3931,99.7794
3953.3572,99.8052
3954.3215,99.8287
3955.2856,99.8448
3956.2500,99.8504
3957.2141,99.8458
3958.1785,99.8345
3959.1426,99.8231
3960.1069,99.8188
3961.0710,99.8268
3962.0354,99.8465
3962.9995,99.8713
3963.9639,99.8918
3964.9280,99.9013
3965.8923,99.8982
3966.8564,99.8858
3967.8208,99.8686
3968.7849,99.8502
3969.7493,99.8315
3970.7134,99.8132
3971.6777,99.7973
3972.6418,99.7881
3973.6062,99.7897
3974.5703,99.8034
3975.5347,99.8257
3976.4988,99.8497
3977.4631,99.8691
3978.4272,99.88
3979.3916,99.8818
3980.3557,99.8751
3981.3201,99.8611
3982.2842,99.841
3983.2485,99.817
3984.2126,99.7934
3985.1770,99.7751
3986.1411,99.7653
3987.1055,99.7635
3988.0696,99.7649
3989.0339,99.7629
3989.9980,99.753
3990.9624,99.736
3991.9265,99.7179
3992.8909,99.7065
3993.8550,99.7062
3994.8193,99.7154
3995.7834,99.7278
3996.7478,99.7372
3997.7119,99.7408
3998.6763,99.7412
3999.6404,99.7432
4000.6047,99.6075

##### Extended Information
[Comments]
Sample name
Comment
User
Division
Company,HANKYONG

[Detailed Information]
Creation date,4/24/2024 10:54 AM

Data array type,Linear data array
Horizontal axis,Wavenumber [cm-1]
Vertical axis,%T
Start,649.893 cm-1
End,4000.6 cm-1
Data interval,0.964233 cm-1
Data points,3476    

[Measurement Information]
Model Name,FT/IR-4700typeA
Serial Number,D056761788

Accessory,ATR PRO ONE
Accessory S/N,C174761809
Incident angle,45 deg

Measurement Date,4/24/2024 10:53 AM

Light Source,Standard
Detector,TGS
Accumulation,32
Resolution,4 cm-1
Zero Filling,On
Apodization,Cosine
Gain,Auto (4)
Aperture,Auto (7.1 mm)
Scanning Speed,Auto (2 mm/sec)
Filter,Auto (30000 Hz)

