TITLE,
DATA TYPE,INFRARED SPECTRUM
ORIGIN,JASCO
OWNER,
DATE,24/04/24
TIME,11:58:14
SPECTROMETER/DATA SYSTEM,
LOCALE,1033
RESOLUTION,
DELTAX,0.964233
XUNITS,1/CM
YUNITS,TRANSMITTANCE
FIRSTX,  649.8934
LASTX, 4000.6047
NPOINTS,    3476
FIRSTY,    99.53520
MAXY,   101.71101
MINY,    73.41776
XYDATA
649.8934,99.5352
650.8576,99.4128
651.8218,99.3411
652.7861,99.3119
653.7503,99.3066
654.7145,99.3035
655.6788,99.2736
656.6430,99.1896
657.6072,99.0434
658.5715,98.864
659.5357,98.7154
660.4999,98.6635
661.4642,98.7253
662.4284,98.8416
663.3926,98.8975
664.3569,98.7566
665.3211,98.2781
666.2853,97.3492
667.2496,96.0353
668.2138,94.8163
669.1780,94.3414
670.1423,94.6545
671.1065,95.2693
672.0707,95.7953
673.0350,96.0902
673.9992,96.1513
674.9634,96.04
675.9277,95.846
676.8919,95.6541
677.8561,95.5128
678.8204,95.4309
679.7846,95.3982
680.7488,95.404
681.7131,95.4406
682.6773,95.4974
683.6415,95.5603
684.6058,95.6166
685.5700,95.6605
686.5342,95.6904
687.4985,95.7044
688.4627,95.697
689.4269,95.661
690.3912,95.5935
691.3554,95.5109
692.3196,95.4645
693.2839,95.5297
694.2481,95.7431
695.2123,96.057
696.1766,96.3833
697.1408,96.6547
698.1050,96.839
699.0693,96.9303
700.0335,96.9414
700.9977,96.8955
701.9620,96.8187
702.9262,96.7328
703.8904,96.6532
704.8547,96.5883
705.8189,96.5378
706.7831,96.4912
707.7474,96.4295
708.7116,96.3315
709.6758,96.1827
710.6401,95.9821
711.6043,95.7409
712.5685,95.4728
713.5328,95.182
714.4970,94.8566
715.4612,94.643
716.4255,94.1882
717.3897,93.6982
718.3539,93.2347
719.3182,92.8753
720.2824,92.6729
721.2466,92.621
722.2109,92.6537
723.1751,92.6824
724.1393,92.6388
725.1036,92.4991
726.0678,92.2813
727.0320,92.0281
727.9963,91.7853
728.9605,91.5853
729.9247,91.4405
730.8890,91.3427
731.8532,91.2676
732.8174,91.1795
733.7817,91.0386
734.7459,90.8096
735.7101,90.4707
736.6744,90.0172
737.6386,89.4616
738.6028,88.8304
739.5671,88.1597
740.5313,87.4914
741.4955,86.8661
742.4598,86.3163
743.4240,85.8592
744.3882,85.4958
745.3525,85.2164
746.3167,85.0105
747.2809,84.8736
748.2452,84.8077
749.2094,84.8142
750.1736,84.887
751.1379,85.0098
752.1021,85.162
753.0663,85.3268
754.0306,85.4969
754.9948,85.6731
755.9590,85.8565
756.9233,86.0402
757.8875,86.2068
758.8517,86.3333
759.8160,86.4004
760.7802,86.4013
761.7444,86.3461
762.7087,86.2573
763.6729,86.1625
764.6371,86.0859
765.6014,86.0439
766.5656,86.0451
767.5298,86.093
768.4941,86.1895
769.4583,86.3351
770.4225,86.5265
771.3868,86.7536
772.3510,86.9963
773.3152,87.2277
774.2795,87.4191
775.2437,87.549
776.2079,87.6089
777.1722,87.6031
778.1364,87.5435
779.1006,87.4413
780.0649,87.3036
781.0291,87.1344
781.9933,86.9412
782.9576,86.7389
783.9218,86.5479
784.8860,86.3851
785.8503,86.2556
786.8145,86.1504
787.7787,86.0523
788.7430,85.9463
789.7072,85.8264
790.6714,85.6944
791.6357,85.5535
792.5999,85.4016
793.5641,85.2316
794.5284,85.0363
795.4926,84.815
796.4568,84.5744
797.4211,84.3248
798.3853,84.0727
799.3495,83.8187
800.3138,83.5603
801.2780,83.2983
802.2422,83.0408
803.2065,82.8025
804.1707,82.5991
805.1349,82.4407
806.0992,82.3292
807.0634,82.2598
808.0276,82.2252
808.9919,82.2203
809.9561,82.2436
810.9203,82.2962
811.8846,82.3791
812.8488,82.4906
813.8130,82.6261
814.7773,82.7788
815.7415,82.9425
816.7057,83.1127
817.6700,83.2867
818.6342,83.4614
819.5984,83.6313
820.5627,83.7883
821.5269,83.9229
822.4911,84.0276
823.4554,84.0995
824.4196,84.1409
825.3839,84.1576
826.3481,84.1566
827.3123,84.1442
828.2766,84.1245
829.2408,84.0998
830.2050,84.0707
831.1693,84.0372
832.1335,83.9986
833.0977,83.9541
834.0620,83.9025
835.0262,83.8418
835.9904,83.7694
836.9547,83.6827
837.9189,83.5803
838.8831,83.4622
839.8474,83.33
840.8116,83.1855
841.7758,83.0296
842.7401,82.8619
843.7043,82.6826
844.6685,82.4934
845.6328,82.2989
846.5970,82.1044
847.5612,81.9149
848.5255,81.7337
849.4897,81.5628
850.4539,81.4049
851.4182,81.2651
852.3824,81.1499
853.3466,81.0654
854.3109,81.0149
855.2751,80.9976
856.2393,81.0086
857.2036,81.0392
858.1678,81.0783
859.1320,81.1133
860.0963,81.1343
861.0605,81.1378
862.0247,81.1308
862.9890,81.1302
863.9532,81.1564
864.9174,81.225
865.8817,81.3377
866.8459,81.4813
867.8101,81.6329
868.7744,81.7699
869.7386,81.8793
870.7028,81.9608
871.6671,82.0227
872.6313,82.0744
873.5955,82.1194
874.5598,82.1543
875.5240,82.1723
876.4882,82.1705
877.4525,82.1543
878.4167,82.1374
879.3809,82.137
880.3452,82.1668
881.3094,82.2322
882.2736,82.3295
883.2379,82.4496
884.2021,82.5832
885.1663,82.7251
886.1306,82.8767
887.0948,83.0447
888.0590,83.2384
889.0233,83.4649
889.9875,83.7267
890.9517,84.0198
891.9160,84.3356
892.8802,84.665
893.8444,85.002
894.8087,85.3457
895.7729,85.6982
896.7371,86.0615
897.7014,86.4341
898.6656,86.8106
899.6298,87.1836
900.5941,87.5464
901.5583,87.8941
902.5225,88.2233
903.4868,88.5304
904.4510,88.8112
905.4152,89.0612
906.3795,89.2766
907.3437,89.4547
908.3079,89.594
909.2722,89.6947
910.2364,89.759
911.2006,89.7927
912.1649,89.8058
913.1291,89.8105
914.0933,89.8184
915.0576,89.8372
916.0218,89.8691
916.9860,89.9122
917.9503,89.963
918.9145,90.0196
919.8787,90.0828
920.8430,90.1557
921.8072,90.2409
922.7714,90.3382
923.7357,90.4428
924.6999,90.5467
925.6641,90.6416
926.6284,90.7228
927.5926,90.7927
928.5568,90.8621
929.5211,90.9492
930.4853,91.0779
931.4495,91.2749
932.4138,91.5657
933.3780,91.9712
934.3422,92.5016
935.3065,93.1515
936.2707,93.8978
937.2349,94.7024
938.1992,95.5198
939.1634,96.3083
940.1276,97.0392
941.0919,97.7002
942.0561,98.2938
943.0203,98.8287
943.9846,99.3133
944.9488,99.7507
945.9130,100.139
946.8773,100.475
947.8415,100.758
948.8057,100.991
949.7700,101.178
950.7342,101.328
951.6984,101.447
952.6627,101.54
953.6269,101.612
954.5911,101.666
955.5554,101.699
956.5196,101.711
957.4838,101.696
958.4481,101.652
959.4123,101.576
960.3765,101.47
961.3408,101.341
962.3050,101.198
963.2692,101.052
964.2335,100.913
965.1977,100.786
966.1619,100.672
967.1262,100.57
968.0904,100.479
969.0546,100.399
970.0189,100.333
970.9831,100.286
971.9473,100.255
972.9116,100.237
973.8758,100.223
974.8400,100.207
975.8043,100.184
976.7685,100.153
977.7327,100.118
978.6970,100.122
979.6612,100.107
980.6254,100.07
981.5897,100.009
982.5539,99.9246
983.5181,99.8179
984.4824,99.6905
985.4466,99.5437
986.4108,99.3807
987.3751,99.2085
988.3393,99.0376
989.3035,98.8797
990.2678,98.7444
991.2320,98.6363
992.1962,98.5544
993.1605,98.4931
994.1247,98.4454
995.0889,98.4059
996.0532,98.3728
997.0174,98.3475
997.9816,98.3314
998.9459,98.3224
999.9101,98.3129
1000.8743,98.2909
1001.8386,98.2432
1002.8028,98.1593
1003.7670,98.0323
1004.7313,97.8572
1005.6955,97.6286
1006.6597,97.3403
1007.6240,96.9864
1008.5882,96.5652
1009.5524,96.0796
1010.5167,95.5374
1011.4809,94.9482
1012.4451,94.3216
1013.4094,93.6652
1014.3736,92.9842
1015.3378,92.2812
1016.3021,91.5573
1017.2663,90.8133
1018.2305,90.0509
1019.1948,89.2709
1020.1590,88.4691
1021.1232,87.6318
1022.0875,86.7374
1023.0517,85.7667
1024.0160,84.7175
1024.9802,83.6162
1025.9445,82.5146
1026.9087,81.4719
1027.8729,80.5297
1028.8372,79.6954
1029.8014,78.9437
1030.7656,78.236
1031.7299,77.5448
1032.6941,76.87
1033.6583,76.2371
1034.6226,75.683
1035.5868,75.2378
1036.5510,74.9129
1037.5153,74.6982
1038.4795,74.5686
1039.4437,74.4926
1040.4080,74.4415
1041.3722,74.3955
1042.3364,74.3468
1043.3007,74.2984
1044.2649,74.2601
1045.2291,74.2434
1046.1934,74.2586
1047.1576,74.3146
1048.1218,74.4213
1049.0861,74.5887
1050.0503,74.8236
1051.0145,75.1231
1051.9788,75.4712
1052.9430,75.8447
1053.9072,76.2243
1054.8715,76.6072
1055.8357,77.0086
1056.7999,77.4508
1057.7642,77.9408
1058.7284,78.4522
1059.6926,78.9235
1060.6569,79.2778
1061.6211,79.4568
1062.5853,79.4514
1063.5496,79.3099
1064.5138,79.1186
1065.4780,78.962
1066.4423,78.884
1067.4065,78.8714
1068.3707,78.8656
1069.3350,78.7962
1070.2992,78.6157
1071.2634,78.3165
1072.2277,77.925
1073.1919,77.4815
1074.1561,77.0201
1075.1204,76.5599
1076.0846,76.1086
1077.0488,75.6719
1078.0131,75.258
1078.9773,74.8774
1079.9415,74.538
1080.9058,74.2422
1081.8700,73.9882
1082.8342,73.7738
1083.7985,73.6008
1084.7627,73.4774
1085.7269,73.4178
1086.6912,73.4396
1087.6554,73.5592
1088.6196,73.7851
1089.5839,74.1115
1090.5481,74.517
1091.5123,74.9704
1092.4766,75.4421
1093.4408,75.9154
1094.4050,76.3922
1095.3693,76.8893
1096.3335,77.4271
1097.2977,78.0191
1098.2620,78.665
1099.2262,79.3524
1100.1904,80.0617
1101.1547,80.7725
1102.1189,81.4667
1103.0831,82.1309
1104.0474,82.7556
1105.0116,83.337
1105.9758,83.8768
1106.9401,84.3831
1107.9043,84.8699
1108.8685,85.3541
1109.8328,85.8537
1110.7970,86.3841
1111.7612,86.9569
1112.7255,87.5784
1113.6897,88.2495
1114.6539,88.9661
1115.6182,89.7194
1116.5824,90.4967
1117.5466,91.2835
1118.5109,92.0649
1119.4751,92.8291
1120.4393,93.5687
1121.4036,94.2807
1122.3678,94.9648
1123.3320,95.6205
1124.2963,96.2447
1125.2605,96.8319
1126.2247,97.3752
1127.1890,97.8681
1128.1532,98.3056
1129.1174,98.684
1130.0817,99.0007
1131.0459,99.2528
1132.0101,99.4373
1132.9744,99.5518
1133.9386,99.5939
1134.9028,99.5618
1135.8671,99.4537
1136.8313,99.2678
1137.7955,99.0031
1138.7598,98.6512
1139.7240,98.1954
1140.6882,97.677
1141.6525,97.1122
1142.6167,96.522
1143.5809,95.9305
1144.5452,95.3617
1145.5094,94.8375
1146.4736,94.3743
1147.4379,93.9817
1148.4021,93.6612
1149.3663,93.4062
1150.3306,93.2026
1151.2948,93.0311
1152.2590,92.8706
1153.2233,92.7025
1154.1875,92.5135
1155.1517,92.2984
1156.1160,92.0581
1157.0802,91.7967
1158.0444,91.5173
1159.0087,91.2186
1159.9729,90.895
1160.9371,90.5393
1161.9014,90.1466
1162.8656,89.7174
1163.8298,89.2576
1164.7941,88.7757
1165.7583,88.2793
1166.7225,87.7728
1167.6868,87.2579
1168.6510,86.7356
1169.6152,86.2082
1170.5795,85.6801
1171.5437,85.1565
1172.5079,84.6417
1173.4722,84.1376
1174.4364,83.6438
1175.4006,83.1588
1176.3649,82.681
1177.3291,82.2091
1178.2933,81.7421
1179.2576,81.2786
1180.2218,80.817
1181.1860,80.3564
1182.1503,79.8978
1183.1145,79.4441
1184.0787,78.9999
1185.0430,78.5704
1186.0072,78.1601
1186.9714,77.7718
1187.9357,77.4075
1188.8999,77.068
1189.8641,76.7536
1190.8284,76.4643
1191.7926,76.1999
1192.7568,75.9597
1193.7211,75.7441
1194.6853,75.5538
1195.6495,75.3899
1196.6138,75.2525
1197.5780,75.1395
1198.5422,75.0467
1199.5065,75.024
1200.4707,74.9486
1201.4349,74.8795
1202.3992,74.8169
1203.3634,74.7626
1204.3276,74.7184
1205.2919,74.6855
1206.2561,74.6635
1207.2203,74.6516
1208.1846,74.6486
1209.1488,74.6538
1210.1130,74.6667
1211.0773,74.6861
1212.0415,74.7101
1213.0057,74.7351
1213.9700,74.7573
1214.9342,74.7745
1215.8984,74.7868
1216.8627,74.7973
1217.8269,74.8105
1218.7911,74.8285
1219.7554,74.8495
1220.7196,74.869
1221.6838,74.8815
1222.6481,74.884
1223.6123,74.8777
1224.5765,74.8666
1225.5408,74.8546
1226.5050,74.8432
1227.4692,74.8294
1228.4335,74.8068
1229.3977,74.7681
1230.3619,74.7093
1231.3262,74.6345
1232.2904,74.5586
1233.2546,74.5064
1234.2189,74.5056
1235.1831,74.5782
1236.1473,74.7323
1237.1116,74.9611
1238.0758,75.2488
1239.0400,75.5795
1240.0043,75.9419
1240.9685,76.327
1241.9327,76.7194
1242.8970,77.0917
1243.8612,77.408
1244.8254,77.6353
1245.7897,77.7589
1246.7539,77.7879
1247.7181,77.7504
1248.6824,77.6796
1249.6466,77.6011
1250.6108,77.526
1251.5751,77.4543
1252.5393,77.3811
1253.5035,77.3035
1254.4678,77.223
1255.4320,77.1445
1256.3962,77.0746
1257.3605,77.0199
1258.3247,76.9865
1259.2889,76.9794
1260.2532,77
1261.2174,77.0447
1262.1816,77.1046
1263.1459,77.1668
1264.1101,77.2169
1265.0743,77.2413
1266.0386,77.2292
1267.0028,77.1737
1267.9670,77.0727
1268.9313,76.9292
1269.8955,76.7508
1270.8597,76.5497
1271.8240,76.3407
1272.7882,76.1398
1273.7524,75.962
1274.7167,75.8192
1275.6809,75.7189
1276.6451,75.6632
1277.6094,75.6497
1278.5736,75.6715
1279.5378,75.7201
1280.5021,75.7874
1281.4663,75.8683
1282.4305,75.9621
1283.3948,76.0729
1284.3590,76.2082
1285.3232,76.3772
1286.2875,76.5881
1287.2517,76.845
1288.2159,77.1459
1289.1802,77.4816
1290.1444,77.8379
1291.1086,78.1991
1292.0729,78.552
1293.0371,78.8877
1294.0013,79.2018
1294.9656,79.4925
1295.9298,79.7592
1296.8940,80.0021
1297.8583,80.2219
1298.8225,80.4205
1299.7867,80.6009
1300.7510,80.7671
1301.7152,80.9226
1302.6794,81.0722
1303.6437,81.2215
1304.6079,81.3763
1305.5721,81.5403
1306.5364,81.714
1307.5006,81.8936
1308.4648,82.0738
1309.4291,82.2513
1310.3933,82.4266
1311.3575,82.6032
1312.3218,82.7834
1313.2860,82.9657
1314.2502,83.1454
1315.2145,83.3185
1316.1787,83.4862
1317.1429,83.6553
1318.1072,83.8335
1319.0714,84.0236
1320.0356,84.2196
1320.9999,84.4099
1321.9641,84.5845
1322.9283,84.7399
1323.8926,84.8788
1324.8568,85.0073
1325.8210,85.1304
1326.7853,85.2503
1327.7495,85.3665
1328.7137,85.4772
1329.6780,85.5803
1330.6422,85.6736
1331.6064,85.7527
1332.5707,85.8111
1333.5349,85.8396
1334.4991,85.8304
1335.4634,85.7809
1336.4276,85.7006
1337.3918,85.6163
1338.3561,85.5693
1339.3203,85.5911
1340.2845,85.6756
1341.2488,85.7801
1342.2130,85.8578
1343.1772,85.8835
1344.1415,85.8538
1345.1057,85.7785
1346.0699,85.6718
1347.0342,85.5489
1347.9984,85.422
1348.9626,85.2972
1349.9269,85.1744
1350.8911,85.0504
1351.8553,84.9241
1352.8196,84.7992
1353.7838,84.6843
1354.7480,84.5882
1355.7123,84.5131
1356.6765,84.4527
1357.6407,84.3953
1358.6050,84.3324
1359.5692,84.2649
1360.5334,84.2091
1361.4977,84.1946
1362.4619,84.2408
1363.4261,84.3307
1364.3904,84.421
1365.3546,84.4778
1366.3188,84.4935
1367.2831,84.4764
1368.2473,84.4355
1369.2115,84.3725
1370.1758,84.282
1371.1400,84.1563
1372.1042,83.9955
1373.0685,83.8171
1374.0327,83.656
1374.9969,83.5451
1375.9612,83.4939
1376.9254,83.4929
1377.8896,83.537
1378.8539,83.6348
1379.8181,83.7983
1380.7823,84.0278
1381.7466,84.3074
1382.7108,84.6178
1383.6750,84.9538
1384.6393,85.3298
1385.6035,85.766
1386.5677,86.2562
1387.5320,86.7369
1388.4962,87.11
1389.4604,87.3156
1390.4247,87.3681
1391.3889,87.3255
1392.3531,87.2509
1393.3174,87.1986
1394.2816,87.2121
1395.2458,87.3096
1396.2101,87.4652
1397.1743,87.6188
1398.1385,87.7125
1399.1028,87.7182
1400.0670,87.6395
1401.0313,87.4987
1401.9955,87.3238
1402.9597,87.1423
1403.9240,86.979
1404.8882,86.8533
1405.8524,86.7712
1406.8167,86.7223
1407.7809,86.6926
1408.7451,86.6772
1409.7094,86.6798
1410.6736,86.7005
1411.6378,86.7279
1412.6021,86.7446
1413.5663,86.7409
1414.5305,86.7213
1415.4948,86.6958
1416.4590,86.6704
1417.4232,86.6516
1418.3875,86.6436
1419.3517,86.6205
1420.3159,86.5285
1421.2802,86.3437
1422.2444,86.092
1423.2086,85.8162
1424.1729,85.5457
1425.1371,85.2882
1426.1013,85.0328
1427.0656,84.7576
1428.0298,84.4404
1428.9940,84.0758
1429.9583,83.6877
1430.9225,83.3202
1431.8867,83.012
1432.8510,82.7753
1433.8152,82.5916
1434.7794,82.4236
1435.7437,82.243
1436.7079,82.0477
1437.6721,81.8391
1438.6364,81.6084
1439.6006,81.3629
1440.5648,81.1301
1441.5291,80.932
1442.4933,80.7704
1443.4575,80.6311
1444.4218,80.4969
1445.3860,80.358
1446.3502,80.2142
1447.3145,80.0679
1448.2787,79.9133
1449.2429,79.7367
1450.2072,79.5327
1451.1714,79.3207
1452.1356,79.1355
1453.0999,78.9988
1454.0641,78.8945
1455.0283,78.7846
1455.9926,78.7009
1456.9568,78.8036
1457.9210,79.1105
1458.8853,79.3635
1459.8495,79.4354
1460.8137,79.4229
1461.7780,79.4585
1462.7422,79.6287
1463.7064,79.9761
1464.6707,80.4893
1465.6349,81.0766
1466.5991,81.6192
1467.5634,82.0781
1468.5276,82.5036
1469.4918,82.9663
1470.4561,83.5163
1471.4203,84.1936
1472.3845,85.0329
1473.3488,85.9824
1474.3130,86.8575
1475.2772,87.5034
1476.2415,87.9203
1477.2057,88.1925
1478.1699,88.4029
1479.1342,88.6104
1480.0984,88.8541
1481.0626,89.1524
1482.0269,89.4955
1482.9911,89.8485
1483.9553,90.1688
1484.9196,90.4226
1485.8838,90.5913
1486.8480,90.6801
1487.8123,90.7486
1488.7765,90.9089
1489.7407,91.2013
1490.7050,91.5098
1491.6692,91.7092
1492.6334,91.7855
1493.5977,91.7797
1494.5619,91.7094
1495.5261,91.5561
1496.4904,91.3066
1497.4546,90.9917
1498.4188,90.6542
1499.3831,90.3094
1500.3473,89.9819
1501.3115,89.729
1502.2758,89.6027
1503.2400,89.5972
1504.2042,89.6114
1505.1685,89.4598
1506.1327,89.0582
1507.0969,88.6996
1508.0612,88.6611
1509.0254,88.7211
1509.9896,88.6829
1510.9539,88.5794
1511.9181,88.485
1512.8823,88.4378
1513.8466,88.4559
1514.8108,88.5634
1515.7750,88.788
1516.7393,89.1362
1517.7035,89.5857
1518.6677,90.1146
1519.6320,90.7287
1520.5962,91.4375
1521.5604,92.1949
1522.5247,92.9022
1523.4889,93.5057
1524.4531,94.0502
1525.4174,94.6133
1526.3816,95.2125
1527.3458,95.7889
1528.3101,96.2745
1529.2743,96.6561
1530.2385,96.9756
1531.2028,97.2959
1532.1670,97.6684
1533.1312,98.0979
1534.0955,98.5277
1535.0597,98.8986
1536.0239,99.2117
1536.9882,99.4855
1537.9524,99.6648
1538.9166,99.6146
1539.8809,99.332
1540.8451,99.1841
1541.8093,99.4401
1542.7736,99.8545
1543.7378,100.186
1544.7020,100.399
1545.6663,100.513
1546.6305,100.542
1547.5947,100.505
1548.5590,100.432
1549.5232,100.348
1550.4874,100.258
1551.4517,100.153
1552.4159,100.032
1553.3801,99.9228
1554.3444,99.8791
1555.3086,99.9101
1556.2728,99.9657
1557.2371,99.9788
1558.2013,100.025
1559.1655,100.152
1560.1298,100.046
1561.0940,99.5639
1562.0582,98.9167
1563.0225,98.323
1563.9867,97.877
1564.9509,97.5747
1565.9152,97.3556
1566.8794,97.138
1567.8436,96.8568
1568.8079,96.5008
1569.7721,96.1087
1570.7363,95.7281
1571.7006,95.389
1572.6648,95.092
1573.6290,94.7899
1574.5933,94.397
1575.5575,93.8689
1576.5217,93.2787
1577.4860,92.7308
1578.4502,92.2381
1579.4144,91.7689
1580.3787,91.3064
1581.3429,90.8381
1582.3071,90.3491
1583.2714,89.8322
1584.2356,89.2939
1585.1998,88.7446
1586.1641,88.1887
1587.1283,87.6266
1588.0925,87.0605
1589.0568,86.4974
1590.0210,85.9443
1590.9852,85.4049
1591.9495,84.8824
1592.9137,84.3865
1593.8779,83.9365
1594.8422,83.5528
1595.8064,83.243
1596.7706,82.9962
1597.7349,82.7903
1598.6991,82.6059
1599.6633,82.4347
1600.6276,82.281
1601.5918,82.1557
1602.5560,82.068
1603.5203,82.0183
1604.4845,82.0003
1605.4487,82.0102
1606.4130,82.054
1607.3772,82.1466
1608.3414,82.2973
1609.3057,82.4925
1610.2699,82.697
1611.2341,82.8835
1612.1984,83.0543
1613.1626,83.233
1614.1268,83.4467
1615.0911,83.7233
1616.0553,84.0767
1617.0195,84.4485
1617.9838,84.7226
1618.9480,84.8605
1619.9122,84.9378
1620.8765,85.0563
1621.8407,85.2764
1622.8049,85.601
1623.7692,85.9821
1624.7334,86.3557
1625.6976,86.6954
1626.6619,87.0244
1627.6261,87.3708
1628.5903,87.7282
1629.5546,88.067
1630.5188,88.3772
1631.4830,88.6799
1632.4473,88.9963
1633.4115,89.3158
1634.3757,89.6204
1635.3400,89.9438
1636.3042,90.3129
1637.2684,90.6286
1638.2327,90.8015
1639.1969,90.8733
1640.1611,90.9324
1641.1254,91.0346
1642.0896,91.1896
1643.0538,91.363
1644.0181,91.479
1644.9823,91.4602
1645.9465,91.3243
1646.9108,91.2078
1647.8750,91.2176
1648.8392,91.3679
1649.8035,91.6464
1650.7677,91.995
1651.7319,92.2715
1652.6962,92.3545
1653.6604,92.2661
1654.6246,91.9888
1655.5889,91.5075
1656.5531,90.9733
1657.5173,90.5439
1658.4816,90.2691
1659.4458,90.1025
1660.4100,89.9553
1661.3743,89.7633
1662.3385,89.5257
1663.3027,89.2775
1664.2670,89.0442
1665.2312,88.8336
1666.1954,88.6313
1667.1597,88.3938
1668.1239,88.0789
1669.0881,87.709
1670.0524,87.3786
1671.0166,87.1563
1671.9808,87.0313
1672.9451,86.9578
1673.9093,86.8855
1674.8735,86.7574
1675.8378,86.5229
1676.8020,86.1738
1677.7662,85.7659
1678.7305,85.3932
1679.6947,85.1325
1680.6589,84.9964
1681.6232,84.9233
1682.5874,84.8255
1683.5516,84.6781
1684.5159,84.4957
1685.4801,84.2293
1686.4443,83.8529
1687.4086,83.4313
1688.3728,83.0475
1689.3370,82.7495
1690.3013,82.5472
1691.2655,82.4223
1692.2297,82.3327
1693.1940,82.2169
1694.1582,82.0098
1695.1224,81.6829
1696.0867,81.2945
1697.0509,80.993
1698.0151,80.9167
1698.9794,81.046
1699.9436,81.1874
1700.9078,81.1531
1701.8721,80.9204
1702.8363,80.6099
1703.8005,80.3726
1704.7648,80.3089
1705.7290,80.4359
1706.6932,80.6901
1707.6575,80.9722
1708.6217,81.2172
1709.5859,81.4245
1710.5502,81.6299
1711.5144,81.8623
1712.4786,82.1249
1713.4429,82.4062
1714.4071,82.7214
1715.3713,83.1673
1716.3356,83.8973
1717.2998,84.8831
1718.2640,85.7982
1719.2283,86.3848
1720.1925,86.6918
1721.1567,86.908
1722.1210,87.1793
1723.0852,87.556
1724.0494,88.0081
1725.0137,88.467
1725.9779,88.8724
1726.9421,89.2039
1727.9064,89.4822
1728.8706,89.7492
1729.8348,90.0457
1730.7991,90.4021
1731.7633,90.8426
1732.7275,91.3794
1733.6918,91.9495
1734.6560,92.3877
1735.6202,92.5874
1736.5845,92.6176
1737.5487,92.6254
1738.5129,92.7108
1739.4772,92.8883
1740.4414,93.1084
1741.4056,93.3029
1742.3699,93.433
1743.3341,93.5085
1744.2983,93.5676
1745.2626,93.6451
1746.2268,93.7607
1747.1910,93.9326
1748.1553,94.1953
1749.1195,94.5792
1750.0837,95.0428
1751.0480,95.462
1752.0122,95.7364
1752.9764,95.8681
1753.9407,95.9269
1754.9049,95.9822
1755.8691,96.0691
1756.8334,96.1898
1757.7976,96.3312
1758.7618,96.4843
1759.7261,96.652
1760.6903,96.8413
1761.6545,97.0467
1762.6188,97.2449
1763.5830,97.4122
1764.5472,97.5459
1765.5115,97.6633
1766.4757,97.7813
1767.4399,97.8999
1768.4042,98.0036
1769.3684,98.0799
1770.3326,98.1446
1771.2969,98.2475
1772.2611,98.4236
1773.2253,98.6316
1774.1896,98.7904
1775.1538,98.8717
1776.1180,98.9126
1777.0823,98.9633
1778.0465,99.0483
1779.0107,99.1642
1779.9750,99.297
1780.9392,99.4367
1781.9034,99.5804
1782.8677,99.7241
1783.8319,99.8546
1784.7961,99.9519
1785.7604,100.004
1786.7246,100.021
1787.6888,100.028
1788.6531,100.047
1789.6173,100.074
1790.5815,100.09
1791.5458,100.093
1792.5100,100.096
1793.4742,100.093
1794.4385,100.066
1795.4027,100.029
1796.3669,100.014
1797.3312,100.04
1798.2954,100.098
1799.2596,100.171
1800.2239,100.243
1801.1881,100.306
1802.1523,100.355
1803.1166,100.385
1804.0808,100.397
1805.0450,100.393
1806.0093,100.378
1806.9735,100.353
1807.9377,100.319
1808.9020,100.289
1809.8662,100.278
1810.8304,100.298
1811.7947,100.344
1812.7589,100.399
1813.7231,100.448
1814.6874,100.485
1815.6516,100.509
1816.6158,100.52
1817.5801,100.516
1818.5443,100.502
1819.5085,100.483
1820.4728,100.466
1821.4370,100.457
1822.4012,100.453
1823.3655,100.448
1824.3297,100.43
1825.2939,100.394
1826.2582,100.339
1827.2224,100.277
1828.1866,100.231
1829.1509,100.225
1830.1151,100.261
1831.0793,100.307
1832.0436,100.325
1833.0078,100.303
1833.9720,100.261
1834.9363,100.218
1835.9005,100.183
1836.8647,100.156
1837.8290,100.136
1838.7932,100.129
1839.7574,100.144
1840.7217,100.182
1841.6859,100.222
1842.6501,100.246
1843.6144,100.245
1844.5786,100.217
1845.5428,100.176
1846.5071,100.135
1847.4713,100.108
1848.4355,100.113
1849.3998,100.151
1850.3640,100.206
1851.3282,100.257
1852.2925,100.288
1853.2567,100.299
1854.2209,100.295
1855.1852,100.284
1856.1494,100.27
1857.1136,100.256
1858.0779,100.245
1859.0421,100.242
1860.0063,100.246
1860.9706,100.251
1861.9348,100.245
1862.8990,100.219
1863.8633,100.17
1864.8275,100.104
1865.7917,100.027
1866.7560,99.9599
1867.7202,99.9422
1868.6844,100.003
1869.6487,100.117
1870.6129,100.223
1871.5771,100.285
1872.5414,100.308
1873.5056,100.316
1874.4698,100.321
1875.4341,100.328
1876.3983,100.333
1877.3625,100.334
1878.3268,100.332
1879.2910,100.33
1880.2552,100.327
1881.2195,100.32
1882.1837,100.31
1883.1479,100.294
1884.1122,100.278
1885.0764,100.265
1886.0406,100.258
1887.0049,100.256
1887.9691,100.259
1888.9333,100.263
1889.8976,100.266
1890.8618,100.262
1891.8260,100.247
1892.7903,100.226
1893.7545,100.21
1894.7188,100.207
1895.6830,100.221
1896.6472,100.248
1897.6115,100.277
1898.5757,100.297
1899.5399,100.306
1900.5042,100.305
1901.4684,100.297
1902.4326,100.286
1903.3969,100.272
1904.3611,100.25
1905.3253,100.218
1906.2896,100.178
1907.2538,100.138
1908.2180,100.111
1909.1823,100.108
1910.1465,100.128
1911.1107,100.159
1912.0750,100.189
1913.0392,100.213
1914.0034,100.234
1914.9677,100.255
1915.9319,100.272
1916.8961,100.279
1917.8604,100.265
1918.8246,100.225
1919.7888,100.163
1920.7531,100.098
1921.7173,100.056
1922.6815,100.055
1923.6458,100.094
1924.6100,100.154
1925.5742,100.211
1926.5385,100.25
1927.5027,100.269
1928.4669,100.274
1929.4312,100.272
1930.3954,100.269
1931.3596,100.267
1932.3239,100.266
1933.2881,100.269
1934.2523,100.274
1935.2166,100.282
1936.1808,100.288
1937.1450,100.288
1938.1093,100.281
1939.0735,100.264
1940.0377,100.238
1941.0020,100.207
1941.9662,100.182
1942.9304,100.172
1943.8947,100.181
1944.8589,100.203
1945.8231,100.235
1946.7874,100.27
1947.7516,100.307
1948.7158,100.339
1949.6801,100.36
1950.6443,100.369
1951.6085,100.367
1952.5728,100.36
1953.5370,100.356
1954.5012,100.357
1955.4655,100.365
1956.4297,100.377
1957.3939,100.389
1958.3582,100.4
1959.3224,100.409
1960.2866,100.415
1961.2509,100.416
1962.2151,100.409
1963.1793,100.393
1964.1436,100.369
1965.1078,100.346
1966.0720,100.333
1967.0363,100.34
1968.0005,100.366
1968.9647,100.402
1969.9290,100.438
1970.8932,100.465
1971.8574,100.48
1972.8217,100.486
1973.7859,100.486
1974.7501,100.484
1975.7144,100.483
1976.6786,100.482
1977.6428,100.483
1978.6071,100.486
1979.5713,100.49
1980.5355,100.495
1981.4998,100.498
1982.4640,100.498
1983.4282,100.492
1984.3925,100.479
1985.3567,100.46
1986.3209,100.437
1987.2852,100.412
1988.2494,100.388
1989.2136,100.368
1990.1779,100.355
1991.1421,100.353
1992.1063,100.364
1993.0706,100.384
1994.0348,100.406
1994.9990,100.425
1995.9633,100.436
1996.9275,100.439
1997.8917,100.438
1998.8560,100.435
1999.8202,100.433
2000.7844,100.432
2001.7487,100.431
2002.7129,100.427
2003.6771,100.421
2004.6414,100.411
2005.6056,100.4
2006.5698,100.39
2007.5341,100.384
2008.4983,100.383
2009.4625,100.384
2010.4268,100.385
2011.3910,100.383
2012.3552,100.373
2013.3195,100.355
2014.2837,100.331
2015.2479,100.305
2016.2122,100.286
2017.1764,100.279
2018.1406,100.285
2019.1049,100.302
2020.0691,100.32
2021.0333,100.335
2021.9976,100.344
2022.9618,100.348
2023.9260,100.347
2024.8903,100.345
2025.8545,100.344
2026.8187,100.344
2027.7830,100.344
2028.7472,100.344
2029.7114,100.342
2030.6757,100.34
2031.6399,100.336
2032.6041,100.332
2033.5684,100.329
2034.5326,100.329
2035.4968,100.33
2036.4611,100.33
2037.4253,100.326
2038.3895,100.316
2039.3538,100.303
2040.3180,100.291
2041.2822,100.285
2042.2465,100.289
2043.2107,100.301
2044.1749,100.318
2045.1392,100.334
2046.1034,100.345
2047.0676,100.352
2048.0320,100.354
2048.9961,100.354
2049.9604,100.352
2050.9246,100.351
2051.8889,100.351
2052.8530,100.352
2053.8174,100.352
2054.7815,100.352
2055.7458,100.352
2056.7100,100.35
2057.6743,100.348
2058.6384,100.345
2059.6028,100.337
2060.5669,100.325
2061.5313,100.308
2062.4954,100.29
2063.4597,100.277
2064.4238,100.275
2065.3882,100.285
2066.3523,100.305
2067.3167,100.327
2068.2808,100.345
2069.2451,100.355
2070.2092,100.357
2071.1736,100.356
2072.1377,100.353
2073.1021,100.352
2074.0662,100.351
2075.0305,100.35
2075.9946,100.35
2076.9590,100.349
2077.9231,100.349
2078.8875,100.35
2079.8516,100.351
2080.8159,100.352
2081.7800,100.35
2082.7444,100.348
2083.7085,100.345
2084.6729,100.343
2085.6370,100.343
2086.6013,100.344
2087.5654,100.346
2088.5298,100.349
2089.4939,100.351
2090.4583,100.353
2091.4224,100.355
2092.3867,100.357
2093.3508,100.359
2094.3152,100.362
2095.2793,100.365
2096.2437,100.369
2097.2078,100.371
2098.1721,100.373
2099.1362,100.372
2100.1006,100.369
2101.0647,100.367
2102.0291,100.364
2102.9932,100.361
2103.9575,100.36
2104.9216,100.359
2105.8860,100.359
2106.8501,100.358
2107.8145,100.357
2108.7786,100.354
2109.7429,100.348
2110.7070,100.341
2111.6714,100.334
2112.6355,100.328
2113.5999,100.325
2114.5640,100.327
2115.5283,100.332
2116.4924,100.34
2117.4568,100.346
2118.4209,100.35
2119.3853,100.351
2120.3494,100.349
2121.3137,100.345
2122.2778,100.339
2123.2422,100.333
2124.2063,100.329
2125.1707,100.326
2126.1348,100.325
2127.0991,100.326
2128.0632,100.33
2129.0276,100.334
2129.9917,100.338
2130.9561,100.34
2131.9202,100.337
2132.8845,100.331
2133.8486,100.323
2134.8130,100.315
2135.7771,100.312
2136.7415,100.314
2137.7056,100.322
2138.6699,100.332
2139.6340,100.341
2140.5984,100.346
2141.5625,100.346
2142.5269,100.343
2143.4910,100.34
2144.4553,100.34
2145.4194,100.343
2146.3838,100.347
2147.3479,100.352
2148.3123,100.355
2149.2764,100.355
2150.2407,100.351
2151.2048,100.346
2152.1692,100.34
2153.1333,100.335
2154.0977,100.332
2155.0618,100.332
2156.0261,100.334
2156.9902,100.337
2157.9546,100.339
2158.9187,100.339
2159.8831,100.338
2160.8472,100.336
2161.8115,100.335
2162.7756,100.336
2163.7400,100.337
2164.7041,100.339
2165.6685,100.339
2166.6326,100.335
2167.5969,100.33
2168.5610,100.323
2169.5254,100.316
2170.4895,100.311
2171.4539,100.31
2172.4180,100.311
2173.3823,100.314
2174.3464,100.318
2175.3108,100.321
2176.2749,100.323
2177.2393,100.322
2178.2034,100.32
2179.1677,100.316
2180.1318,100.31
2181.0962,100.302
2182.0603,100.293
2183.0247,100.284
2183.9888,100.276
2184.9531,100.271
2185.9172,100.269
2186.8816,100.27
2187.8457,100.275
2188.8101,100.282
2189.7742,100.289
2190.7385,100.293
2191.7026,100.293
2192.6670,100.289
2193.6311,100.281
2194.5955,100.273
2195.5596,100.268
2196.5239,100.264
2197.4880,100.262
2198.4524,100.26
2199.4165,100.256
2200.3809,100.25
2201.3450,100.243
2202.3093,100.237
2203.2734,100.233
2204.2378,100.231
2205.2019,100.231
2206.1663,100.232
2207.1304,100.233
2208.0947,100.233
2209.0588,100.231
2210.0232,100.227
2210.9873,100.218
2211.9517,100.206
2212.9158,100.193
2213.8801,100.182
2214.8442,100.176
2215.8086,100.173
2216.7727,100.173
2217.7371,100.172
2218.7012,100.168
2219.6655,100.161
2220.6296,100.153
2221.5940,100.146
2222.5581,100.142
2223.5225,100.142
2224.4866,100.144
2225.4509,100.144
2226.4150,100.14
2227.3794,100.131
2228.3435,100.118
2229.3079,100.105
2230.2720,100.092
2231.2363,100.08
2232.2004,100.069
2233.1648,100.058
2234.1289,100.048
2235.0933,100.04
2236.0574,100.034
2237.0217,100.03
2237.9858,100.026
2238.9502,100.02
2239.9143,100.01
2240.8787,99.9967
2241.8428,99.982
2242.8071,99.9671
2243.7712,99.9526
2244.7356,99.9385
2245.6997,99.9239
2246.6641,99.9087
2247.6282,99.8928
2248.5925,99.8765
2249.5566,99.8593
2250.5210,99.8408
2251.4851,99.8205
2252.4495,99.7986
2253.4136,99.7758
2254.3779,99.7526
2255.3420,99.7297
2256.3064,99.7072
2257.2705,99.6854
2258.2349,99.6647
2259.1990,99.6458
2260.1633,99.6285
2261.1274,99.6124
2262.0918,99.5965
2263.0559,99.5803
2264.0203,99.5644
2264.9844,99.55
2265.9487,99.5384
2266.9128,99.5296
2267.8772,99.522
2268.8413,99.5138
2269.8057,99.5036
2270.7698,99.4917
2271.7341,99.4796
2272.6982,99.4696
2273.6626,99.463
2274.6267,99.4607
2275.5911,99.4627
2276.5552,99.4695
2277.5195,99.4816
2278.4836,99.499
2279.4480,99.5198
2280.4121,99.5401
2281.3765,99.5543
2282.3406,99.5566
2283.3049,99.5426
2284.2690,99.5106
2285.2334,99.4629
2286.1975,99.4047
2287.1619,99.3425
2288.1260,99.2814
2289.0903,99.2233
2290.0544,99.1667
2291.0188,99.1098
2291.9829,99.053
2292.9473,98.9999
2293.9114,98.9559
2294.8757,98.9253
2295.8398,98.909
2296.8042,98.9052
2297.7683,98.9124
2298.7327,98.9325
2299.6968,98.9702
2300.6611,99.0296
2301.6252,99.1089
2302.5896,99.1973
2303.5537,99.2777
2304.5181,99.3329
2305.4822,99.3548
2306.4465,99.3504
2307.4106,99.3419
2308.3750,99.3585
2309.3391,99.4228
2310.3035,99.5395
2311.2676,99.691
2312.2319,99.8465
2313.1960,99.9778
2314.1604,100.074
2315.1245,100.148
2316.0889,100.224
2317.0530,100.328
2318.0173,100.467
2318.9814,100.62
2319.9458,100.739
2320.9099,100.762
2321.8743,100.64
2322.8384,100.364
2323.8027,99.983
2324.7668,99.5875
2325.7312,99.2754
2326.6953,99.1147
2327.6597,99.1175
2328.6238,99.2336
2329.5881,99.3675
2330.5522,99.4189
2331.5166,99.3302
2332.4807,99.1142
2333.4451,98.8407
2334.4092,98.5924
2335.3735,98.4211
2336.3376,98.3264
2337.3020,98.2636
2338.2661,98.173
2339.2305,98.0175
2340.1946,97.8168
2341.1589,97.6669
2342.1230,97.7219
2343.0874,98.0794
2344.0515,98.6012
2345.0159,98.9424
2345.9800,98.8844
2346.9443,98.5418
2347.9084,98.1888
2348.8728,98.0502
2349.8369,98.196
2350.8013,98.5231
2351.7654,98.8128
2352.7297,98.8583
2353.6938,98.6133
2354.6582,98.2093
2355.6223,97.7882
2356.5867,97.3761
2357.5508,96.9566
2358.5151,96.5839
2359.4792,96.3649
2360.4436,96.3535
2361.4077,96.5114
2362.3721,96.7759
2363.3362,97.1228
2364.3005,97.5556
2365.2646,98.0631
2366.2290,98.6067
2367.1931,99.1428
2368.1575,99.6445
2369.1216,100.101
2370.0859,100.504
2371.0500,100.845
2372.0144,101.112
2372.9785,101.29
2373.9429,101.37
2374.9070,101.343
2375.8713,101.212
2376.8354,100.992
2377.7998,100.707
2378.7639,100.394
2379.7283,100.09
2380.6924,99.8276
2381.6567,99.6266
2382.6208,99.4958
2383.5852,99.4307
2384.5493,99.4172
2385.5137,99.4367
2386.4778,99.4706
2387.4421,99.5048
2388.4063,99.5312
2389.3706,99.5483
2390.3347,99.5582
2391.2991,99.5646
2392.2632,99.5702
2393.2275,99.5756
2394.1917,99.5804
2395.1560,99.5842
2396.1201,99.5873
2397.0845,99.5911
2398.0486,99.5965
2399.0129,99.6037
2399.9771,99.6117
2400.9414,99.618
2401.9055,99.6206
2402.8699,99.6189
2403.8340,99.6142
2404.7983,99.6097
2405.7625,99.6085
2406.7268,99.6125
2407.6909,99.6216
2408.6553,99.6337
2409.6194,99.6461
2410.5837,99.6563
2411.5479,99.6637
2412.5122,99.6686
2413.4763,99.6722
2414.4407,99.6755
2415.4048,99.6788
2416.3691,99.6823
2417.3333,99.6861
2418.2976,99.6903
2419.2617,99.6945
2420.2261,99.6978
2421.1902,99.6996
2422.1545,99.6998
2423.1187,99.6995
2424.0830,99.7007
2425.0471,99.705
2426.0115,99.7127
2426.9756,99.7223
2427.9399,99.7319
2428.9041,99.7395
2429.8684,99.745
2430.8325,99.7494
2431.7969,99.7536
2432.7610,99.7579
2433.7253,99.7614
2434.6895,99.7631
2435.6538,99.763
2436.6179,99.7626
2437.5823,99.764
2438.5464,99.7687
2439.5107,99.7766
2440.4749,99.7861
2441.4392,99.7949
2442.4033,99.8011
2443.3677,99.8045
2444.3318,99.8055
2445.2961,99.8049
2446.2603,99.8033
2447.2246,99.8007
2448.1887,99.7972
2449.1531,99.7934
2450.1172,99.7908
2451.0815,99.7908
2452.0457,99.7941
2453.0100,99.8002
2453.9741,99.8073
2454.9385,99.8133
2455.9026,99.8168
2456.8669,99.8176
2457.8311,99.8168
2458.7954,99.8159
2459.7595,99.816
2460.7239,99.8177
2461.6880,99.8204
2462.6523,99.8235
2463.6165,99.8264
2464.5808,99.8286
2465.5449,99.8299
2466.5093,99.8304
2467.4734,99.83
2468.4377,99.8293
2469.4019,99.8291
2470.3662,99.8305
2471.3303,99.8342
2472.2947,99.8402
2473.2588,99.8477
2474.2231,99.8554
2475.1873,99.862
2476.1516,99.867
2477.1157,99.8701
2478.0801,99.8718
2479.0442,99.8726
2480.0085,99.8731
2480.9727,99.8733
2481.9370,99.873
2482.9011,99.8721
2483.8655,99.8703
2484.8296,99.868
2485.7939,99.8662
2486.7581,99.8658
2487.7224,99.8678
2488.6865,99.8723
2489.6509,99.8785
2490.6150,99.8845
2491.5793,99.8888
2492.5435,99.8903
2493.5078,99.8893
2494.4719,99.8872
2495.4363,99.8863
2496.4004,99.8879
2497.3647,99.8922
2498.3289,99.8976
2499.2932,99.902
2500.2573,99.9035
2501.2217,99.9016
2502.1858,99.8978
2503.1501,99.8939
2504.1143,99.8916
2505.0786,99.8911
2506.0427,99.8913
2507.0071,99.8907
2507.9712,99.8884
2508.9355,99.8847
2509.8997,99.8804
2510.8640,99.8768
2511.8281,99.8746
2512.7925,99.874
2513.7566,99.8748
2514.7209,99.8768
2515.6851,99.8795
2516.6494,99.8821
2517.6135,99.8838
2518.5779,99.8839
2519.5420,99.8823
2520.5063,99.8799
2521.4705,99.8778
2522.4348,99.8766
2523.3989,99.8759
2524.3633,99.8745
2525.3274,99.8714
2526.2917,99.8668
2527.2559,99.8617
2528.2202,99.8575
2529.1843,99.855
2530.1487,99.8537
2531.1128,99.8524
2532.0771,99.8501
2533.0413,99.8472
2534.0056,99.8443
2534.9697,99.8426
2535.9341,99.8422
2536.8982,99.8427
2537.8625,99.8434
2538.8267,99.8435
2539.7910,99.8426
2540.7551,99.8405
2541.7195,99.8374
2542.6836,99.8337
2543.6479,99.8302
2544.6121,99.8282
2545.5764,99.8282
2546.5405,99.8301
2547.5049,99.8325
2548.4690,99.8338
2549.4333,99.8336
2550.3975,99.8323
2551.3618,99.8315
2552.3259,99.8321
2553.2903,99.8342
2554.2544,99.8364
2555.2188,99.8376
2556.1829,99.8378
2557.1472,99.8382
2558.1113,99.8409
2559.0757,99.8468
2560.0398,99.8551
2561.0042,99.8634
2561.9683,99.8689
2562.9326,99.8699
2563.8967,99.8666
2564.8611,99.8613
2565.8252,99.8567
2566.7896,99.8548
2567.7537,99.8562
2568.7180,99.8597
2569.6821,99.8638
2570.6465,99.8672
2571.6106,99.869
2572.5750,99.8698
2573.5391,99.8705
2574.5034,99.8723
2575.4675,99.8761
2576.4319,99.8823
2577.3960,99.8901
2578.3604,99.8984
2579.3245,99.9059
2580.2888,99.912
2581.2529,99.917
2582.2173,99.9218
2583.1814,99.9269
2584.1458,99.932
2585.1099,99.9358
2586.0742,99.9372
2587.0383,99.9357
2588.0027,99.9324
2588.9668,99.9291
2589.9312,99.9276
2590.8953,99.9284
2591.8596,99.9311
2592.8237,99.9342
2593.7881,99.9363
2594.7522,99.9366
2595.7166,99.9353
2596.6807,99.9332
2597.6450,99.9316
2598.6091,99.932
2599.5735,99.9351
2600.5376,99.9405
2601.5020,99.9471
2602.4661,99.9533
2603.4304,99.9578
2604.3945,99.9606
2605.3589,99.9629
2606.3230,99.966
2607.2874,99.9704
2608.2515,99.9753
2609.2158,99.9792
2610.1799,99.9809
2611.1443,99.9804
2612.1084,99.9791
2613.0728,99.9789
2614.0369,99.981
2615.0012,99.9852
2615.9653,99.9903
2616.9297,99.9949
2617.8938,99.9982
2618.8582,100.001
2619.8223,100.003
2620.7866,100.005
2621.7507,100.008
2622.7151,100.011
2623.6792,100.013
2624.6436,100.013
2625.6077,100.013
2626.5720,100.012
2627.5361,100.012
2628.5005,100.014
2629.4646,100.017
2630.4290,100.022
2631.3931,100.027
2632.3574,100.032
2633.3215,100.036
2634.2859,100.041
2635.2500,100.046
2636.2144,100.052
2637.1785,100.059
2638.1428,100.066
2639.1069,100.072
2640.0713,100.077
2641.0354,100.082
2641.9998,100.086
2642.9639,100.091
2643.9282,100.096
2644.8923,100.1
2645.8567,100.105
2646.8208,100.11
2647.7852,100.114
2648.7493,100.116
2649.7136,100.116
2650.6777,100.114
2651.6421,100.111
2652.6062,100.108
2653.5706,100.107
2654.5347,100.11
2655.4990,100.117
2656.4631,100.125
2657.4275,100.134
2658.3916,100.142
2659.3560,100.149
2660.3201,100.154
2661.2844,100.158
2662.2485,100.16
2663.2129,100.162
2664.1770,100.163
2665.1414,100.164
2666.1055,100.169
2667.0698,100.176
2668.0339,100.188
2668.9983,100.201
2669.9624,100.216
2670.9268,100.231
2671.8909,100.244
2672.8552,100.256
2673.8193,100.266
2674.7837,100.275
2675.7478,100.282
2676.7122,100.286
2677.6763,100.287
2678.6406,100.283
2679.6047,100.277
2680.5691,100.272
2681.5332,100.268
2682.4976,100.268
2683.4617,100.271
2684.4260,100.276
2685.3901,100.279
2686.3545,100.281
2687.3186,100.28
2688.2830,100.278
2689.2471,100.279
2690.2114,100.284
2691.1755,100.294
2692.1399,100.308
2693.1040,100.321
2694.0684,100.332
2695.0325,100.337
2695.9968,100.336
2696.9609,100.332
2697.9253,100.327
2698.8894,100.323
2699.8538,100.321
2700.8179,100.321
2701.7822,100.324
2702.7463,100.328
2703.7107,100.335
2704.6748,100.341
2705.6392,100.345
2706.6033,100.345
2707.5676,100.339
2708.5317,100.33
2709.4961,100.319
2710.4602,100.31
2711.4246,100.302
2712.3887,100.296
2713.3530,100.29
2714.3171,100.285
2715.2815,100.28
2716.2456,100.275
2717.2100,100.27
2718.1741,100.265
2719.1384,100.26
2720.1025,100.254
2721.0669,100.25
2722.0310,100.246
2722.9954,100.241
2723.9595,100.233
2724.9238,100.22
2725.8879,100.202
2726.8523,100.182
2727.8164,100.163
2728.7808,100.15
2729.7449,100.143
2730.7092,100.143
2731.6733,100.146
2732.6377,100.154
2733.6018,100.165
2734.5662,100.177
2735.5303,100.192
2736.4946,100.206
2737.4587,100.22
2738.4231,100.234
2739.3872,100.249
2740.3516,100.265
2741.3157,100.285
2742.2800,100.308
2743.2441,100.335
2744.2085,100.364
2745.1726,100.394
2746.1370,100.421
2747.1011,100.442
2748.0654,100.456
2749.0295,100.461
2749.9939,100.463
2750.9580,100.466
2751.9224,100.474
2752.8865,100.487
2753.8508,100.504
2754.8149,100.518
2755.7793,100.524
2756.7434,100.52
2757.7078,100.51
2758.6719,100.496
2759.6362,100.485
2760.6003,100.479
2761.5647,100.481
2762.5288,100.487
2763.4932,100.496
2764.4573,100.502
2765.4216,100.505
2766.3857,100.504
2767.3501,100.501
2768.3142,100.498
2769.2786,100.495
2770.2427,100.49
2771.2070,100.481
2772.1711,100.463
2773.1355,100.439
2774.0996,100.41
2775.0640,100.383
2776.0281,100.36
2776.9924,100.343
2777.9565,100.331
2778.9209,100.316
2779.8850,100.296
2780.8494,100.268
2781.8135,100.235
2782.7778,100.201
2783.7419,100.171
2784.7063,100.148
2785.6704,100.133
2786.6348,100.121
2787.5989,100.108
2788.5632,100.09
2789.5273,100.064
2790.4917,100.032
2791.4558,99.9993
2792.4202,99.97
2793.3843,99.9472
2794.3486,99.9302
2795.3127,99.915
2796.2771,99.8961
2797.2412,99.8699
2798.2056,99.8359
2799.1697,99.7962
2800.1340,99.7538
2801.0981,99.7105
2802.0625,99.6667
2803.0266,99.6216
2803.9910,99.5753
2804.9551,99.5285
2805.9194,99.4825
2806.8835,99.4377
2807.8479,99.3926
2808.8120,99.3442
2809.7764,99.2891
2810.7405,99.2246
2811.7048,99.1498
2812.6689,99.0662
2813.6333,98.9762
2814.5974,98.8831
2815.5618,98.7896
2816.5259,98.6967
2817.4902,98.6036
2818.4543,98.5077
2819.4187,98.4054
2820.3828,98.2936
2821.3472,98.1702
2822.3113,98.0345
2823.2756,97.8872
2824.2397,97.7295
2825.2041,97.5631
2826.1682,97.3893
2827.1326,97.2089
2828.0967,97.0213
2829.0610,96.8245
2830.0251,96.6148
2830.9895,96.3882
2831.9536,96.1416
2832.9180,95.8739
2833.8821,95.5859
2834.8464,95.2787
2835.8105,94.9528
2836.7749,94.6075
2837.7390,94.2412
2838.7034,93.8527
2839.6675,93.4412
2840.6318,93.005
2841.5959,92.5409
2842.5603,92.0449
2843.5244,91.5163
2844.4888,90.9622
2845.4529,90.401
2846.4172,89.8612
2847.3813,89.374
2848.3457,88.9632
2849.3098,88.638
2850.2742,88.391
2851.2383,88.2041
2852.2026,88.0577
2853.1667,87.9376
2854.1311,87.838
2855.0952,87.7582
2856.0596,87.6983
2857.0237,87.6549
2857.9880,87.6202
2858.9521,87.5843
2859.9165,87.5381
2860.8806,87.4752
2861.8450,87.3928
2862.8091,87.2915
2863.7734,87.1742
2864.7375,87.0462
2865.7019,86.9144
2866.6660,86.7871
2867.6304,86.6731
2868.5945,86.5804
2869.5588,86.5155
2870.5229,86.4817
2871.4873,86.4788
2872.4514,86.5026
2873.4158,86.5461
2874.3799,86.6003
2875.3442,86.6568
2876.3083,86.7079
2877.2727,86.7479
2878.2368,86.7732
2879.2012,86.7823
2880.1653,86.7759
2881.1296,86.7575
2882.0938,86.7318
2883.0581,86.7037
2884.0222,86.6762
2884.9866,86.6489
2885.9507,86.618
2886.9150,86.5774
2887.8792,86.5207
2888.8435,86.4445
2889.8076,86.3501
2890.7720,86.2439
2891.7361,86.1343
2892.7004,86.027
2893.6646,85.9185
2894.6289,85.7958
2895.5930,85.6404
2896.5574,85.4394
2897.5215,85.1947
2898.4858,84.9265
2899.4500,84.6658
2900.4143,84.4408
2901.3784,84.2631
2902.3428,84.1227
2903.3069,83.9937
2904.2712,83.847
2905.2354,83.6618
2906.1997,83.4305
2907.1638,83.1553
2908.1282,82.842
2909.0923,82.4959
2910.0566,82.1218
2911.0208,81.7272
2911.9851,81.3244
2912.9492,80.9302
2913.9136,80.5623
2914.8777,80.2342
2915.8420,79.9524
2916.8062,79.7158
2917.7705,79.5187
2918.7346,79.3547
2919.6990,79.2199
2920.6631,79.1148
2921.6274,79.043
2922.5916,79.0088
2923.5559,79.0149
2924.5200,79.0607
2925.4844,79.1433
2926.4485,79.2589
2927.4128,79.405
2928.3770,79.5802
2929.3413,79.7838
2930.3054,80.0144
2931.2698,80.2696
2932.2339,80.5463
2933.1982,80.8415
2934.1624,81.1524
2935.1267,81.4761
2936.0908,81.8079
2937.0552,82.1413
2938.0193,82.468
2938.9836,82.7805
2939.9478,83.0734
2940.9121,83.3449
2941.8762,83.5956
2942.8406,83.8263
2943.8047,84.0354
2944.7690,84.218
2945.7332,84.3672
2946.6975,84.4763
2947.6616,84.5418
2948.6260,84.5649
2949.5901,84.5515
2950.5544,84.5105
2951.5186,84.4519
2952.4829,84.3849
2953.4470,84.317
2954.4114,84.254
2955.3755,84.2002
2956.3398,84.1596
2957.3040,84.1362
2958.2683,84.1338
2959.2324,84.1548
2960.1968,84.1993
2961.1609,84.2651
2962.1252,84.3486
2963.0894,84.4468
2964.0537,84.559
2965.0178,84.6864
2965.9822,84.8314
2966.9463,84.9959
2967.9106,85.181
2968.8748,85.3871
2969.8391,85.615
2970.8032,85.8658
2971.7676,86.1398
2972.7317,86.4359
2973.6960,86.7506
2974.6602,87.0791
2975.6245,87.4168
2976.5886,87.7604
2977.5530,88.108
2978.5171,88.4587
2979.4814,88.8105
2980.4456,89.1592
2981.4099,89.4967
2982.3740,89.8127
2983.3384,90.0977
2984.3025,90.35
2985.2668,90.5805
2986.2310,90.8143
2987.1953,91.0827
2988.1594,91.4101
2989.1238,91.8011
2990.0879,92.2359
2991.0522,92.6775
2992.0164,93.0876
2992.9807,93.4419
2993.9448,93.7377
2994.9092,93.9902
2995.8733,94.2209
2996.8376,94.4468
2997.8018,94.675
2998.7661,94.9041
2999.7302,95.1296
3000.6946,95.3484
3001.6587,95.5606
3002.6230,95.769
3003.5872,95.9764
3004.5515,96.184
3005.5156,96.3898
3006.4800,96.5891
3007.4441,96.7763
3008.4084,96.9474
3009.3726,97.1027
3010.3369,97.2475
3011.3010,97.3892
3012.2654,97.5338
3013.2295,97.6819
3014.1938,97.8289
3015.1580,97.9676
3016.1223,98.0925
3017.0864,98.2025
3018.0508,98.3008
3019.0149,98.3919
3019.9792,98.4794
3020.9434,98.5648
3021.9077,98.6479
3022.8718,98.7277
3023.8362,98.8037
3024.8003,98.8751
3025.7646,98.9404
3026.7288,98.9979
3027.6931,99.0467
3028.6572,99.0876
3029.6216,99.1241
3030.5857,99.161
3031.5500,99.2028
3032.5142,99.2518
3033.4785,99.3076
3034.4426,99.3675
3035.4070,99.428
3036.3711,99.4857
3037.3354,99.5383
3038.2996,99.5838
3039.2639,99.6214
3040.2280,99.6505
3041.1924,99.6708
3042.1565,99.6827
3043.1208,99.6547
3044.0850,99.6152
3045.0493,99.573
3046.0134,99.5321
3046.9778,99.4962
3047.9419,99.4669
3048.9063,99.4425
3049.8704,99.4188
3050.8347,99.3908
3051.7988,99.3554
3052.7632,99.3127
3053.7273,99.2667
3054.6917,99.2233
3055.6558,99.1886
3056.6201,99.1655
3057.5842,99.1529
3058.5486,99.1442
3059.5127,99.1305
3060.4771,99.1033
3061.4412,99.0588
3062.4055,99.0003
3063.3696,98.9375
3064.3340,98.8825
3065.2981,98.8439
3066.2625,98.8228
3067.2266,98.8128
3068.1909,98.8042
3069.1550,98.7897
3070.1194,98.7664
3071.0835,98.7361
3072.0479,98.7014
3073.0120,98.6639
3073.9763,98.6226
3074.9404,98.5763
3075.9048,98.5252
3076.8689,98.4725
3077.8333,98.4232
3078.7974,98.3818
3079.7617,98.3502
3080.7258,98.3267
3081.6902,98.307
3082.6543,98.2859
3083.6187,98.2594
3084.5828,98.2259
3085.5471,98.1866
3086.5112,98.1441
3087.4756,98.1009
3088.4397,98.0572
3089.4041,98.011
3090.3682,97.9586
3091.3325,97.8973
3092.2966,97.8267
3093.2610,97.7494
3094.2251,97.6692
3095.1895,97.5892
3096.1536,97.5105
3097.1179,97.4327
3098.0820,97.3559
3099.0464,97.282
3100.0105,97.2142
3100.9749,97.1549
3101.9390,97.1045
3102.9033,97.0598
3103.8674,97.0164
3104.8318,96.9696
3105.7959,96.9166
3106.7603,96.8566
3107.7244,96.7903
3108.6887,96.7188
3109.6528,96.6432
3110.6172,96.5642
3111.5813,96.4825
3112.5457,96.3988
3113.5098,96.3146
3114.4741,96.2326
3115.4382,96.1559
3116.4026,96.0876
3117.3667,96.0281
3118.3311,95.9752
3119.2952,95.9241
3120.2595,95.87
3121.2236,95.81
3122.1880,95.7452
3123.1521,95.6798
3124.1165,95.6189
3125.0806,95.5651
3126.0449,95.5161
3127.0090,95.4655
3127.9734,95.4051
3128.9375,95.3297
3129.9019,95.2404
3130.8660,95.1451
3131.8303,95.0549
3132.7944,94.9794
3133.7588,94.9214
3134.7229,94.8762
3135.6873,94.8348
3136.6514,94.7887
3137.6157,94.7337
3138.5798,94.67
3139.5442,94.6007
3140.5083,94.5285
3141.4727,94.4547
3142.4368,94.3798
3143.4011,94.3045
3144.3652,94.2305
3145.3296,94.1596
3146.2937,94.0924
3147.2581,94.0286
3148.2222,93.9665
3149.1865,93.9042
3150.1506,93.8396
3151.1150,93.7708
3152.0791,93.6965
3153.0435,93.6165
3154.0076,93.5325
3154.9719,93.4479
3155.9360,93.3662
3156.9004,93.2892
3157.8645,93.2164
3158.8289,93.1451
3159.7930,93.073
3160.7573,92.9989
3161.7214,92.9238
3162.6858,92.8493
3163.6499,92.7761
3164.6143,92.7036
3165.5784,92.6307
3166.5427,92.5576
3167.5068,92.486
3168.4712,92.4181
3169.4353,92.4084
3170.3997,92.3449
3171.3638,92.2758
3172.3281,92.1954
3173.2922,92.1017
3174.2566,91.9983
3175.2207,91.894
3176.1851,91.7989
3177.1492,91.7202
3178.1135,91.6585
3179.0776,91.6077
3180.0420,91.5588
3181.0061,91.5042
3181.9705,91.442
3182.9346,91.3749
3183.8989,91.3078
3184.8630,91.244
3185.8274,91.1825
3186.7915,91.1197
3187.7559,91.0519
3188.7200,90.9789
3189.6843,90.9037
3190.6484,90.8309
3191.6128,90.763
3192.5769,90.6988
3193.5413,90.6349
3194.5054,90.5678
3195.4697,90.4972
3196.4338,90.4256
3197.3982,90.3573
3198.3623,90.2949
3199.3267,90.2384
3200.2908,90.1854
3201.2551,90.1327
3202.2192,90.0774
3203.1836,90.0181
3204.1477,89.9547
3205.1121,89.8885
3206.0762,89.8221
3207.0405,89.7581
3208.0046,89.6982
3208.9690,89.6416
3209.9331,89.5852
3210.8975,89.526
3211.8616,89.4633
3212.8259,89.4008
3213.7900,89.344
3214.7544,89.2971
3215.7185,89.2594
3216.6829,89.2249
3217.6470,89.1861
3218.6113,89.1377
3219.5754,89.0799
3220.5398,89.0176
3221.5039,88.9566
3222.4683,88.9009
3223.4324,88.8513
3224.3967,88.8068
3225.3608,88.7668
3226.3252,88.7313
3227.2893,88.7001
3228.2537,88.6711
3229.2178,88.6401
3230.1821,88.6022
3231.1462,88.5551
3232.1106,88.5001
3233.0747,88.4418
3234.0391,88.3857
3235.0032,88.3356
3235.9675,88.2917
3236.9316,88.2515
3237.8960,88.211
3238.8601,88.1669
3239.8245,88.118
3240.7886,88.0651
3241.7529,88.011
3242.7170,87.9599
3243.6814,87.916
3244.6455,87.8821
3245.6099,87.8571
3246.5740,87.8363
3247.5383,87.8124
3248.5024,87.7794
3249.4668,87.7348
3250.4309,87.6814
3251.3953,87.6253
3252.3594,87.5733
3253.3237,87.5291
3254.2878,87.4927
3255.2522,87.4608
3256.2163,87.4296
3257.1807,87.3966
3258.1448,87.3612
3259.1091,87.3236
3260.0732,87.2843
3261.0376,87.2438
3262.0017,87.2031
3262.9661,87.1638
3263.9302,87.1275
3264.8945,87.0945
3265.8586,87.0631
3266.8230,87.0302
3267.7871,86.992
3268.7515,86.9464
3269.7156,86.8934
3270.6799,86.8361
3271.6440,86.7791
3272.6084,86.728
3273.5725,86.6864
3274.5369,86.6555
3275.5010,86.633
3276.4653,86.615
3277.4294,86.5974
3278.3938,86.5778
3279.3579,86.5556
3280.3223,86.5311
3281.2864,86.5044
3282.2507,86.475
3283.2148,86.443
3284.1792,86.409
3285.1433,86.3746
3286.1077,86.341
3287.0718,86.3086
3288.0361,86.2761
3289.0002,86.2418
3289.9646,86.2049
3290.9287,86.1666
3291.8931,86.1295
3292.8572,86.0963
3293.8215,86.0686
3294.7856,86.0456
3295.7500,86.0244
3296.7141,86.0011
3297.6785,85.9723
3298.6426,85.9375
3299.6069,85.8994
3300.5710,85.8626
3301.5354,85.8309
3302.4995,85.8048
3303.4639,85.7806
3304.4280,85.7534
3305.3923,85.7204
3306.3564,85.6838
3307.3208,85.6496
3308.2849,85.6236
3309.2493,85.6075
3310.2134,85.5975
3311.1777,85.5874
3312.1418,85.5722
3313.1062,85.5514
3314.0703,85.5277
3315.0347,85.5043
3315.9988,85.4823
3316.9631,85.4604
3317.9272,85.4366
3318.8916,85.41
3319.8557,85.3821
3320.8201,85.3547
3321.7842,85.3289
3322.7485,85.3038
3323.7126,85.2777
3324.6770,85.2495
3325.6411,85.2202
3326.6055,85.1926
3327.5696,85.1695
3328.5339,85.1511
3329.4980,85.1348
3330.4624,85.1168
3331.4265,85.094
3332.3909,85.0671
3333.3550,85.0406
3334.3193,85.0202
3335.2834,85.0096
3336.2478,85.0073
3337.2119,85.0075
3338.1763,85.0034
3339.1404,84.9917
3340.1047,84.9737
3341.0688,84.9541
3342.0332,84.9366
3342.9973,84.9218
3343.9617,84.9067
3344.9258,84.8878
3345.8901,84.8643
3346.8542,84.8388
3347.8186,84.8169
3348.7827,84.803
3349.7471,84.798
3350.7112,84.7981
3351.6755,84.7969
3352.6396,84.7885
3353.6040,84.7709
3354.5681,84.747
3355.5325,84.7241
3356.4966,84.7093
3357.4609,84.7061
3358.4250,84.7111
3359.3894,84.7162
3360.3535,84.7124
3361.3179,84.6962
3362.2820,84.6713
3363.2463,84.6477
3364.2104,84.6352
3365.1748,84.6383
3366.1389,84.6536
3367.1033,84.6719
3368.0674,84.6842
3369.0317,84.6863
3369.9958,84.6804
3370.9602,84.6723
3371.9243,84.6677
3372.8887,84.6688
3373.8528,84.6738
3374.8171,84.6783
3375.7813,84.6787
3376.7456,84.6739
3377.7097,84.6658
3378.6741,84.6582
3379.6382,84.6541
3380.6025,84.6545
3381.5667,84.658
3382.5310,84.6624
3383.4951,84.6661
3384.4595,84.6696
3385.4236,84.675
3386.3879,84.6844
3387.3521,84.6983
3388.3164,84.7155
3389.2805,84.7331
3390.2449,84.7488
3391.2090,84.7622
3392.1733,84.7757
3393.1375,84.7939
3394.1018,84.8216
3395.0659,84.8603
3396.0303,84.9064
3396.9944,84.9515
3397.9587,84.985
3398.9229,84.9998
3399.8872,84.9963
3400.8513,84.9831
3401.8157,84.9728
3402.7798,84.9755
3403.7441,84.9942
3404.7083,85.0251
3405.6726,85.0612
3406.6367,85.0976
3407.6011,85.1332
3408.5652,85.1698
3409.5295,85.2083
3410.4937,85.2469
3411.4580,85.2812
3412.4221,85.3068
3413.3865,85.3224
3414.3506,85.3297
3415.3149,85.3319
3416.2791,85.3322
3417.2434,85.3339
3418.2075,85.3414
3419.1719,85.3608
3420.1360,85.3977
3421.1003,85.4533
3422.0645,85.5225
3423.0288,85.5963
3423.9929,85.6663
3424.9573,85.7286
3425.9214,85.7845
3426.8857,85.8374
3427.8499,85.8898
3428.8142,85.9417
3429.7783,85.9907
3430.7427,86.0355
3431.7068,86.0775
3432.6711,86.1211
3433.6353,86.17
3434.5996,86.2248
3435.5637,86.2814
3436.5281,86.3335
3437.4922,86.3757
3438.4565,86.4058
3439.4207,86.4254
3440.3850,86.4384
3441.3491,86.4489
3442.3135,86.4609
3443.2776,86.4789
3444.2419,86.5083
3445.2061,86.5553
3446.1704,86.6233
3447.1345,86.7104
3448.0989,86.8077
3449.0630,86.9039
3450.0273,86.9908
3450.9915,87.0653
3451.9558,87.1293
3452.9199,87.1862
3453.8843,87.2392
3454.8484,87.2898
3455.8127,87.3373
3456.7769,87.3794
3457.7412,87.4143
3458.7053,87.4423
3459.6697,87.4677
3460.6338,87.4975
3461.5981,87.5393
3462.5623,87.5972
3463.5266,87.67
3464.4907,87.7517
3465.4551,87.835
3466.4192,87.9144
3467.3835,87.9879
3468.3477,88.0556
3469.3120,88.1184
3470.2761,88.1772
3471.2405,88.2333
3472.2046,88.2895
3473.1689,88.3495
3474.1331,88.4149
3475.0974,88.483
3476.0615,88.5462
3477.0259,88.5967
3477.9900,88.6311
3478.9543,88.6542
3479.9185,88.6778
3480.8828,88.7155
3481.8469,88.7741
3482.8113,88.8498
3483.7754,88.9313
3484.7397,89.0078
3485.7039,89.0749
3486.6682,89.1355
3487.6323,89.1969
3488.5967,89.2644
3489.5608,89.3374
3490.5251,89.4102
3491.4893,89.4763
3492.4536,89.5333
3493.4177,89.5847
3494.3821,89.6374
3495.3462,89.6963
3496.3105,89.7583
3497.2747,89.8133
3498.2390,89.8512
3499.2031,89.8694
3500.1675,89.8783
3501.1316,89.8995
3502.0959,89.9552
3503.0601,90.0528
3504.0244,90.1764
3504.9885,90.298
3505.9529,90.3967
3506.9170,90.4683
3507.8813,90.5225
3508.8455,90.5762
3509.8098,90.644
3510.7739,90.7302
3511.7383,90.8288
3512.7024,90.9298
3513.6667,91.0264
3514.6309,91.1158
3515.5952,91.197
3516.5593,91.2688
3517.5237,91.3291
3518.4878,91.3761
3519.4521,91.41
3520.4163,91.4342
3521.3806,91.4548
3522.3447,91.4792
3523.3091,91.5134
3524.2732,91.5604
3525.2375,91.6221
3526.2017,91.7013
3527.1660,91.802
3528.1301,91.925
3529.0945,92.0632
3530.0586,92.2023
3531.0229,92.3284
3531.9871,92.4348
3532.9514,92.5239
3533.9155,92.6052
3534.8799,92.6913
3535.8440,92.7911
3536.8083,92.9039
3537.7725,93.0173
3538.7368,93.1135
3539.7009,93.1783
3540.6653,93.2075
3541.6294,93.2079
3542.5938,93.1994
3543.5579,93.2146
3544.5222,93.2866
3545.4863,93.426
3546.4507,93.6064
3547.4148,93.7831
3548.3792,93.9268
3549.3433,94.0367
3550.3076,94.1321
3551.2717,94.2373
3552.2361,94.3677
3553.2002,94.5207
3554.1646,94.6788
3555.1287,94.8235
3556.0930,94.9456
3557.0571,95.0443
3558.0215,95.1205
3558.9856,95.175
3559.9500,95.2088
3560.9141,95.225
3561.8784,95.2284
3562.8425,95.2243
3563.8069,95.22
3564.7710,95.2411
3565.7354,95.3446
3566.6995,95.5771
3567.6638,95.8925
3568.6279,96.1759
3569.5923,96.3602
3570.5564,96.462
3571.5208,96.528
3572.4849,96.5902
3573.4492,96.6562
3574.4133,96.722
3575.3777,96.7845
3576.3418,96.8466
3577.3062,96.9128
3578.2703,96.9827
3579.2346,97.0486
3580.1987,97.0998
3581.1631,97.1314
3582.1272,97.1474
3583.0916,97.1549
3584.0557,97.1554
3585.0200,97.1508
3585.9841,97.1625
3586.9485,97.2216
3587.9126,97.3161
3588.8770,97.3846
3589.8411,97.3873
3590.8054,97.3384
3591.7695,97.2735
3592.7339,97.2181
3593.6980,97.1825
3594.6624,97.166
3595.6265,97.1589
3596.5908,97.1517
3597.5549,97.1492
3598.5193,97.1723
3599.4834,97.2422
3600.4478,97.3599
3601.4119,97.5005
3602.3762,97.6323
3603.3403,97.7396
3604.3047,97.826
3605.2688,97.9042
3606.2332,97.9887
3607.1973,98.0902
3608.1616,98.2026
3609.1257,98.297
3610.0901,98.3407
3611.0542,98.3225
3612.0186,98.26
3612.9829,98.1853
3613.9470,98.1275
3614.9114,98.1012
3615.8755,98.106
3616.8398,98.1346
3617.8040,98.1809
3618.7683,98.2374
3619.7324,98.2767
3620.6968,98.2575
3621.6609,98.1725
3622.6252,98.0709
3623.5894,98.0223
3624.5537,98.0654
3625.5178,98.1825
3626.4822,98.316
3627.4463,98.4283
3628.4106,98.5355
3629.3748,98.6307
3630.3391,98.6581
3631.3032,98.6151
3632.2676,98.5668
3633.2317,98.5704
3634.1960,98.6344
3635.1602,98.7283
3636.1245,98.8135
3637.0886,98.8692
3638.0530,98.8965
3639.0171,98.9063
3639.9814,98.9055
3640.9456,98.8962
3641.9099,98.884
3642.8740,98.8827
3643.8384,98.9035
3644.8025,98.9306
3645.7668,98.9057
3646.7310,98.769
3647.6953,98.5935
3648.6594,98.6183
3649.6238,98.894
3650.5879,99.157
3651.5522,99.249
3652.5164,99.2301
3653.4807,99.2003
3654.4448,99.2006
3655.4092,99.2183
3656.3733,99.2241
3657.3376,99.1999
3658.3018,99.1513
3659.2661,99.1042
3660.2302,99.0837
3661.1946,99.0934
3662.1587,99.1172
3663.1230,99.1398
3664.0872,99.1633
3665.0515,99.1986
3666.0156,99.2401
3666.9800,99.2518
3667.9441,99.1964
3668.9084,99.0915
3669.8726,99.0048
3670.8369,98.9766
3671.8010,98.9917
3672.7654,99.0106
3673.7295,98.998
3674.6938,98.9603
3675.6580,98.9515
3676.6223,98.9883
3677.5864,99.0228
3678.5508,99.0294
3679.5149,99.0262
3680.4792,99.0287
3681.4434,99.0331
3682.4077,99.0344
3683.3718,99.0436
3684.3362,99.0776
3685.3003,99.1284
3686.2646,99.1428
3687.2288,99.0523
3688.1931,98.8612
3689.1572,98.686
3690.1216,98.6251
3691.0857,98.6531
3692.0500,98.7051
3693.0142,98.7549
3693.9785,98.803
3694.9426,98.8531
3695.9070,98.9082
3696.8711,98.9725
3697.8354,99.0478
3698.7996,99.1276
3699.7639,99.1988
3700.7280,99.2503
3701.6924,99.2779
3702.6565,99.2806
3703.6208,99.2621
3704.5850,99.2359
3705.5493,99.2184
3706.5134,99.2117
3707.4778,99.1974
3708.4419,99.1624
3709.4063,99.1544
3710.3704,99.2864
3711.3347,99.5948
3712.2988,99.9354
3713.2632,100.139
3714.2273,100.169
3715.1917,100.088
3716.1558,99.9599
3717.1201,99.8158
3718.0842,99.6555
3719.0486,99.4749
3720.0127,99.2842
3720.9771,99.1074
3721.9412,98.9689
3722.9055,98.882
3723.8696,98.8471
3724.8340,98.852
3725.7981,98.8771
3726.7625,98.9068
3727.7266,98.9405
3728.6909,98.9867
3729.6550,99.0437
3730.6194,99.0861
3731.5835,99.0733
3732.5479,98.9901
3733.5120,98.9004
3734.4763,98.9256
3735.4404,99.0926
3736.4048,99.2704
3737.3689,99.3499
3738.3333,99.3696
3739.2974,99.4477
3740.2617,99.6696
3741.2258,100.026
3742.1902,100.404
3743.1543,100.639
3744.1187,100.63
3745.0828,100.406
3746.0471,100.088
3747.0112,99.8017
3747.9756,99.6145
3748.9397,99.5439
3749.9041,99.5987
3750.8682,99.7564
3751.8325,99.8896
3752.7966,99.8709
3753.7610,99.7185
3754.7251,99.537
3755.6895,99.4048
3756.6536,99.3465
3757.6179,99.3557
3758.5820,99.431
3759.5464,99.5233
3760.5105,99.5953
3761.4749,99.6329
3762.4390,99.6471
3763.4033,99.6552
3764.3674,99.6664
3765.3318,99.6816
3766.2959,99.6983
3767.2603,99.7155
3768.2244,99.7362
3769.1887,99.7651
3770.1528,99.7994
3771.1172,99.8252
3772.0813,99.8297
3773.0457,99.8166
3774.0098,99.8025
3774.9741,99.7989
3775.9382,99.8013
3776.9026,99.797
3777.8667,99.7819
3778.8311,99.7606
3779.7952,99.7313
3780.7595,99.6849
3781.7236,99.6212
3782.6880,99.5568
3783.6521,99.5178
3784.6165,99.5263
3785.5806,99.5876
3786.5449,99.6847
3787.5090,99.7878
3788.4734,99.8713
3789.4375,99.926
3790.4019,99.9556
3791.3660,99.9649
3792.3303,99.9488
3793.2944,99.8951
3794.2588,99.8004
3795.2229,99.6846
3796.1873,99.5859
3797.1514,99.5352
3798.1157,99.5308
3799.0798,99.5413
3800.0442,99.5357
3801.0083,99.5125
3801.9727,99.492
3802.9368,99.4945
3803.9011,99.5398
3804.8652,99.639
3805.8296,99.7754
3806.7937,99.899
3807.7581,99.9513
3808.7222,99.9127
3809.6865,99.8299
3810.6506,99.7831
3811.6150,99.8218
3812.5791,99.9237
3813.5435,100.008
3814.5076,99.9956
3815.4719,99.8707
3816.4360,99.6855
3817.4004,99.5098
3818.3645,99.3924
3819.3289,99.3575
3820.2930,99.4027
3821.2573,99.4828
3822.2214,99.5231
3823.1858,99.4877
3824.1499,99.4102
3825.1143,99.3527
3826.0784,99.3566
3827.0427,99.4244
3828.0068,99.5288
3828.9712,99.6317
3829.9353,99.7047
3830.8997,99.7399
3831.8638,99.7491
3832.8281,99.7503
3833.7922,99.7517
3834.7566,99.7403
3835.7207,99.6893
3836.6851,99.585
3837.6492,99.4529
3838.6135,99.3451
3839.5776,99.2986
3840.5420,99.3193
3841.5061,99.3957
3842.4705,99.505
3843.4346,99.6079
3844.3989,99.6601
3845.3630,99.6413
3846.3274,99.5792
3847.2915,99.542
3848.2559,99.6026
3849.2200,99.7947
3850.1843,100.081
3851.1484,100.362
3852.1128,100.565
3853.0769,100.694
3854.0413,100.698
3855.0054,100.48
3855.9697,100.116
3856.9338,99.7809
3857.8982,99.5886
3858.8623,99.5507
3859.8267,99.602
3860.7908,99.6513
3861.7551,99.6427
3862.7192,99.595
3863.6836,99.5738
3864.6477,99.6198
3865.6121,99.7183
3866.5762,99.8225
3867.5405,99.8815
3868.5046,99.8635
3869.4690,99.7778
3870.4331,99.676
3871.3975,99.6134
3872.3616,99.6077
3873.3259,99.6416
3874.2900,99.6937
3875.2544,99.7538
3876.2185,99.8144
3877.1829,99.8601
3878.1470,99.8697
3879.1113,99.8354
3880.0754,99.7808
3881.0398,99.7508
3882.0039,99.7802
3882.9683,99.8711
3883.9324,99.9919
3884.8967,100.093
3885.8608,100.133
3886.8252,100.101
3887.7893,100.021
3888.7537,99.9288
3889.7178,99.8477
3890.6821,99.7913
3891.6462,99.7648
3892.6106,99.7579
3893.5747,99.7551
3894.5391,99.7595
3895.5032,99.7863
3896.4675,99.8348
3897.4316,99.8804
3898.3960,99.8958
3899.3601,99.8749
3900.3245,99.8309
3901.2886,99.78
3902.2529,99.7363
3903.2170,99.715
3904.1814,99.7211
3905.1455,99.7431
3906.1099,99.7676
3907.0740,99.7936
3908.0383,99.826
3909.0024,99.8639
3909.9668,99.8994
3910.9309,99.9245
3911.8953,99.938
3912.8594,99.9442
3913.8237,99.9461
3914.7878,99.9429
3915.7522,99.9338
3916.7163,99.9224
3917.6807,99.9107
3918.6448,99.8922
3919.6091,99.8579
3920.5732,99.8081
3921.5376,99.753
3922.5017,99.7063
3923.4661,99.6789
3924.4302,99.6725
3925.3945,99.6759
3926.3586,99.6738
3927.3230,99.6585
3928.2871,99.6336
3929.2515,99.6106
3930.2156,99.6063
3931.1799,99.6361
3932.1440,99.6997
3933.1084,99.7761
3934.0725,99.8401
3935.0369,99.8801
3936.0010,99.8991
3936.9653,99.904
3937.9294,99.8967
3938.8938,99.8747
3939.8579,99.8373
3940.8223,99.7926
3941.7864,99.7568
3942.7507,99.743
3943.7148,99.75
3944.6792,99.7644
3945.6433,99.7701
3946.6077,99.7584
3947.5718,99.7326
3948.5361,99.7071
3949.5002,99.6976
3950.4646,99.7096
3951.4287,99.7355
3952.3931,99.7631
3953.3572,99.7835
3954.3215,99.7938
3955.2856,99.7965
3956.2500,99.7971
3957.2141,99.8007
3958.1785,99.8105
3959.1426,99.8274
3960.1069,99.851
3961.0710,99.8798
3962.0354,99.9098
3962.9995,99.9345
3963.9639,99.9474
3964.9280,99.9449
3965.8923,99.9283
3966.8564,99.9032
3967.8208,99.8765
3968.7849,99.8536
3969.7493,99.8369
3970.7134,99.8259
3971.6777,99.8202
3972.6418,99.8203
3973.6062,99.8277
3974.5703,99.8432
3975.5347,99.8645
3976.4988,99.8864
3977.4631,99.9031
3978.4272,99.9105
3979.3916,99.908
3980.3557,99.8981
3981.3201,99.8854
3982.2842,99.8743
3983.2485,99.8673
3984.2126,99.8649
3985.1770,99.8659
3986.1411,99.8691
3987.1055,99.8727
3988.0696,99.8746
3989.0339,99.8716
3989.9980,99.861
3990.9624,99.8428
3991.9265,99.8211
3992.8909,99.804
3993.8550,99.7992
3994.8193,99.8101
3995.7834,99.8326
3996.7478,99.8575
3997.7119,99.8757
3998.6763,99.8838
3999.6404,99.8852
4000.6047,99.6774

##### Extended Information
[Comments]
Sample name
Comment
User
Division
Company,HANKYONG

[Detailed Information]
Creation date,4/24/2024 11:58 AM

Data array type,Linear data array
Horizontal axis,Wavenumber [cm-1]
Vertical axis,%T
Start,649.893 cm-1
End,4000.6 cm-1
Data interval,0.964233 cm-1
Data points,3476    

[Measurement Information]
Model Name,FT/IR-4700typeA
Serial Number,D056761788

Accessory,ATR PRO ONE
Accessory S/N,C174761809
Incident angle,45 deg

Measurement Date,4/24/2024 11:57 AM

Light Source,Standard
Detector,TGS
Accumulation,32
Resolution,4 cm-1
Zero Filling,On
Apodization,Cosine
Gain,Auto (4)
Aperture,Auto (7.1 mm)
Scanning Speed,Auto (2 mm/sec)
Filter,Auto (30000 Hz)

