TITLE,
DATA TYPE,INFRARED SPECTRUM
ORIGIN,JASCO
OWNER,
DATE,24/04/24
TIME,11:34:28
SPECTROMETER/DATA SYSTEM,
LOCALE,1033
RESOLUTION,
DELTAX,0.964233
XUNITS,1/CM
YUNITS,TRANSMITTANCE
FIRSTX,  649.8934
LASTX, 4000.6047
NPOINTS,    3476
FIRSTY,    98.31185
MAXY,   101.55185
MINY,    49.19967
XYDATA
649.8934,98.3119
650.8576,98.3807
651.8218,98.5011
652.7861,98.6586
653.7503,98.8435
654.7145,98.833
655.6788,98.804
656.6430,98.7729
657.6072,98.7218
658.5715,98.6469
659.5357,98.5659
660.4999,98.5066
661.4642,98.4777
662.4284,98.4497
663.3926,98.3598
664.3569,98.1288
665.3211,97.6726
666.2853,96.9285
667.2496,95.9605
668.2138,95.1073
669.1780,94.7926
670.1423,95.0149
671.1065,95.4374
672.0707,95.8107
673.0350,96.0545
673.9992,96.174
674.9634,96.2061
675.9277,96.2018
676.8919,96.2163
677.8561,96.2953
678.8204,96.4633
679.7846,96.7195
680.7488,97.0389
681.7131,97.3808
682.6773,97.7059
683.6415,97.9952
684.6058,98.2557
685.5700,98.5051
686.5342,98.7478
687.4985,98.9588
688.4627,99.0908
689.4269,99.098
690.3912,98.9645
691.3554,98.7355
692.3196,98.5368
693.2839,98.5385
694.2481,98.8272
695.2123,99.3172
696.1766,99.8372
697.1408,100.254
698.1050,100.51
699.0693,100.608
700.0335,100.592
700.9977,100.518
701.9620,100.439
702.9262,100.386
703.8904,100.373
704.8547,100.399
705.8189,100.452
706.7831,100.509
707.7474,100.55
708.7116,100.556
709.6758,100.526
710.6401,100.47
711.6043,100.408
712.5685,100.348
713.5328,100.282
714.4970,100.187
715.4612,100.347
716.4255,100.093
717.3897,99.783
718.3539,99.4687
719.3182,99.2149
720.2824,99.0715
721.2466,99.0452
722.2109,99.0967
723.1751,99.1658
724.1393,99.2054
725.1036,99.2009
726.0678,99.1691
727.0320,99.1427
727.9963,99.1487
728.9605,99.1943
729.9247,99.2666
730.8890,99.3443
731.8532,99.4114
732.8174,99.4631
733.7817,99.502
734.7459,99.5278
735.7101,99.5313
736.6744,99.4964
737.6386,99.4672
738.6028,99.4696
739.5671,99.4446
740.5313,99.4221
741.4955,99.4263
742.4598,99.4662
743.4240,99.5331
744.3882,99.6092
745.3525,99.6774
746.3167,99.7272
747.2809,99.755
748.2452,99.7624
749.2094,99.7542
750.1736,99.7378
751.1379,99.7211
752.1021,99.7087
753.0663,99.6979
754.0306,99.6792
754.9948,99.6434
755.9590,99.5906
756.9233,99.5346
757.8875,99.4983
758.8517,99.5018
759.8160,99.5512
760.7802,99.6355
761.7444,99.733
762.7087,99.8232
763.6729,99.8961
764.6371,99.9546
765.6014,100.01
766.5656,100.074
767.5298,100.155
768.4941,100.252
769.4583,100.358
770.4225,100.462
771.3868,100.548
772.3510,100.606
773.3152,100.627
774.2795,100.612
775.2437,100.566
776.2079,100.501
777.1722,100.433
778.1364,100.379
779.1006,100.353
780.0649,100.359
781.0291,100.389
781.9933,100.427
782.9576,100.451
783.9218,100.448
784.8860,100.417
785.8503,100.371
786.8145,100.33
787.7787,100.307
788.7430,100.3
789.7072,100.296
790.6714,100.276
791.6357,100.226
792.5999,100.143
793.5641,100.039
794.5284,99.9291
795.4926,99.8285
796.4568,99.7446
797.4211,99.6771
798.3853,99.6209
799.3495,99.5687
800.3138,99.513
801.2780,99.4463
802.2422,99.3607
803.2065,99.2488
804.1707,99.1061
805.1349,98.9326
806.0992,98.7338
807.0634,98.5184
808.0276,98.2958
808.9919,98.0728
809.9561,97.8533
810.9203,97.6392
811.8846,97.4329
812.8488,97.2398
813.8130,97.0684
814.7773,96.9299
815.7415,96.8341
816.7057,96.786
817.6700,96.7825
818.6342,96.8118
819.5984,96.8569
820.5627,96.9023
821.5269,96.9404
822.4911,96.9751
823.4554,97.0189
824.4196,97.0845
825.3839,97.1761
826.3481,97.2831
827.3123,97.383
828.2766,97.4487
829.2408,97.4589
830.2050,97.4048
831.1693,97.2907
832.1335,97.1281
833.0977,96.9283
834.0620,96.6974
835.0262,96.4353
835.9904,96.1387
836.9547,95.8069
837.9189,95.4439
838.8831,95.0594
839.8474,94.6661
840.8116,94.2761
841.7758,93.8989
842.7401,93.5411
843.7043,93.2073
844.6685,92.9023
845.6328,92.632
846.5970,92.4034
847.5612,92.223
848.5255,92.0944
849.4897,92.0169
850.4539,91.9852
851.4182,91.9916
852.3824,92.0282
853.3466,92.0885
854.3109,92.1668
855.2751,92.2566
856.2393,92.3503
857.2036,92.4411
858.1678,92.527
859.1320,92.6142
860.0963,92.716
861.0605,92.8483
862.0247,93.0225
862.9890,93.2413
863.9532,93.4991
864.9174,93.7864
865.8817,94.0961
866.8459,94.4268
867.8101,94.7825
868.7744,95.1688
869.7386,95.5886
870.7028,96.0369
871.6671,96.4997
872.6313,96.9554
873.5955,97.3799
874.5598,97.7547
875.5240,98.0724
876.4882,98.3388
877.4525,98.5677
878.4167,98.7731
879.3809,98.9621
880.3452,99.1334
881.3094,99.2814
882.2736,99.4017
883.2379,99.4945
884.2021,99.5624
885.1663,99.6063
886.1306,99.6222
887.0948,99.603
888.0590,99.5426
889.0233,99.4409
889.9875,99.3043
890.9517,99.1426
891.9160,98.9635
892.8802,98.7692
893.8444,98.5562
894.8087,98.3176
895.7729,98.0475
896.7371,97.7427
897.7014,97.4033
898.6656,97.0324
899.6298,96.6349
900.5941,96.217
901.5583,95.7864
902.5225,95.3519
903.4868,94.9228
904.4510,94.5069
905.4152,94.1097
906.3795,93.7331
907.3437,93.3765
908.3079,93.0383
909.2722,92.7184
910.2364,92.4195
911.2006,92.1475
912.1649,91.9088
913.1291,91.7085
914.0933,91.5488
915.0576,91.4292
916.0218,91.3489
916.9860,91.3088
917.9503,91.3128
918.9145,91.3669
919.8787,91.4767
920.8430,91.6459
921.8072,91.8746
922.7714,92.1598
923.7357,92.4961
924.6999,92.8766
925.6641,93.2932
926.6284,93.7381
927.5926,94.206
928.5568,94.6958
929.5211,95.2108
930.4853,95.756
931.4495,96.3329
932.4138,96.936
933.3780,97.5512
934.3422,98.1588
935.3065,98.7377
936.2707,99.27
937.2349,99.7416
938.1992,100.142
939.1634,100.464
940.1276,100.703
941.0919,100.861
942.0561,100.946
943.0203,100.969
943.9846,100.941
944.9488,100.869
945.9130,100.756
946.8773,100.599
947.8415,100.394
948.8057,100.143
949.7700,99.8517
950.7342,99.5478
951.6984,99.2764
952.6627,98.9862
953.6269,98.6766
954.5911,98.342
955.5554,97.9746
956.5196,97.5663
957.4838,97.1106
958.4481,96.6032
959.4123,96.0422
960.3765,95.4292
961.3408,94.7706
962.3050,94.0791
963.2692,93.3725
964.2335,92.6709
965.1977,91.992
966.1619,91.3474
967.1262,90.7417
968.0904,90.1741
969.0546,89.642
970.0189,89.1427
970.9831,88.6739
971.9473,88.2327
972.9116,87.8148
973.8758,87.4149
974.8400,87.0281
975.8043,86.6498
976.7685,86.275
977.7327,85.8961
978.6970,85.5031
979.6612,85.0847
980.6254,84.6312
981.5897,84.1373
982.5539,83.6022
983.5181,83.0292
984.4824,82.4248
985.4466,81.7993
986.4108,81.1674
987.3751,80.549
988.3393,79.9673
989.3035,79.4443
990.2678,78.9967
991.2320,78.6316
992.1962,78.3473
993.1605,78.1346
994.1247,77.9809
995.0889,77.8725
996.0532,77.7958
997.0174,77.7366
997.9816,77.6792
998.9459,77.6055
999.9101,77.4975
1000.8743,77.3385
1001.8386,77.1151
1002.8028,76.817
1003.7670,76.4348
1004.7313,75.9582
1005.6955,75.3759
1006.6597,74.6789
1007.6240,73.8641
1008.5882,72.9375
1009.5524,71.9122
1010.5167,70.8054
1011.4809,69.6336
1012.4451,68.4104
1013.4094,67.1465
1014.3736,65.8516
1015.3378,64.536
1016.3021,63.2113
1017.2663,61.8908
1018.2305,60.5888
1019.1948,59.3189
1020.1590,58.0906
1021.1232,56.9066
1022.0875,55.7627
1023.0517,54.654
1024.0160,53.5848
1024.9802,52.575
1025.9445,51.66
1026.9087,50.8792
1027.8729,50.2602
1028.8372,49.8073
1029.8014,49.5018
1030.7656,49.3132
1031.7299,49.2158
1032.6941,49.1997
1033.6583,49.2715
1034.6226,49.4468
1035.5868,49.7381
1036.5510,50.146
1037.5153,50.6567
1038.4795,51.245
1039.4437,51.8808
1040.4080,52.5364
1041.3722,53.193
1042.3364,53.8433
1043.3007,54.4905
1044.2649,55.144
1045.2291,55.8141
1046.1934,56.5083
1047.1576,57.2308
1048.1218,57.9844
1049.0861,58.7721
1050.0503,59.5956
1051.0145,60.4525
1051.9788,61.3346
1052.9430,62.2301
1053.9072,63.1297
1054.8715,64.0336
1055.8357,64.9535
1056.7999,65.9052
1057.7642,66.8949
1058.7284,67.9049
1059.6926,68.8901
1060.6569,69.7898
1061.6211,70.5526
1062.5853,71.1619
1063.5496,71.6482
1064.5138,72.078
1065.4780,72.523
1066.4423,73.0256
1067.4065,73.5773
1068.3707,74.1246
1069.3350,74.596
1070.2992,74.9353
1071.2634,75.1234
1072.2277,75.178
1073.1919,75.1373
1074.1561,75.0392
1075.1204,74.9086
1076.0846,74.7571
1077.0488,74.5885
1078.0131,74.4061
1078.9773,74.2134
1079.9415,74.0131
1080.9058,73.8047
1081.8700,73.5843
1082.8342,73.3474
1083.7985,73.0907
1084.7627,72.814
1085.7269,72.5212
1086.6912,72.2197
1087.6554,71.9195
1088.6196,71.6291
1089.5839,71.3521
1090.5481,71.0848
1091.5123,70.8176
1092.4766,70.5402
1093.4408,70.2464
1094.4050,69.9354
1095.3693,69.6092
1096.3335,69.2676
1097.2977,68.906
1098.2620,68.5171
1099.2262,68.0954
1100.1904,67.6417
1101.1547,67.1644
1102.1189,66.677
1103.0831,66.1954
1104.0474,65.7356
1105.0116,65.3138
1105.9758,64.9469
1106.9401,64.6525
1107.9043,64.4489
1108.8685,64.354
1109.8328,64.3863
1110.7970,64.5647
1111.7612,64.9075
1112.7255,65.4299
1113.6897,66.1405
1114.6539,67.0384
1115.6182,68.1135
1116.5824,69.3494
1117.5466,70.7267
1118.5109,72.2267
1119.4751,73.8322
1120.4393,75.5271
1121.4036,77.2945
1122.3678,79.1155
1123.3320,80.9689
1124.2963,82.8314
1125.2605,84.6793
1126.2247,86.4884
1127.1890,88.2358
1128.1532,89.8996
1129.1174,91.4601
1130.0817,92.901
1131.0459,94.2098
1132.0101,95.3789
1132.9744,96.4049
1133.9386,97.2865
1134.9028,98.0228
1135.8671,98.6123
1136.8313,99.0537
1137.7955,99.3488
1138.7598,99.5049
1139.7240,99.5358
1140.6882,99.4608
1141.6525,99.3013
1142.6167,99.0558
1143.5809,98.6799
1144.5452,98.2708
1145.5094,97.8413
1146.4736,97.4052
1147.4379,96.979
1148.4021,96.581
1149.3663,96.2303
1150.3306,95.9428
1151.2948,95.7283
1152.2590,95.5885
1153.2233,95.5161
1154.1875,95.4974
1155.1517,95.5155
1156.1160,95.554
1157.0802,95.598
1158.0444,95.6329
1159.0087,95.6429
1159.9729,95.6096
1160.9371,95.5146
1161.9014,95.3431
1162.8656,95.0894
1163.8298,94.758
1164.7941,94.3621
1165.7583,93.9179
1166.7225,93.4387
1167.6868,92.9314
1168.6510,92.3967
1169.6152,91.8322
1170.5795,91.2364
1171.5437,90.6107
1172.5079,89.9593
1173.4722,89.287
1174.4364,88.597
1175.4006,87.8896
1176.3649,87.1637
1177.3291,86.4197
1178.2933,85.6615
1179.2576,84.8977
1180.2218,84.1404
1181.1860,83.4024
1182.1503,82.6941
1183.1145,82.022
1184.0787,81.3892
1185.0430,80.7957
1186.0072,80.2401
1186.9714,79.7189
1187.9357,79.228
1188.8999,78.762
1189.8641,78.3157
1190.8284,77.8847
1191.7926,77.4653
1192.7568,77.0551
1193.7211,76.6524
1194.6853,76.2565
1195.6495,75.8674
1196.6138,75.4852
1197.5780,75.1094
1198.5422,74.7383
1199.5065,74.4122
1200.4707,74.0377
1201.4349,73.6627
1202.3992,73.291
1203.3634,72.9304
1204.3276,72.5902
1205.2919,72.279
1206.2561,72.0026
1207.2203,71.763
1208.1846,71.5607
1209.1488,71.3966
1210.1130,71.2733
1211.0773,71.1954
1212.0415,71.1672
1213.0057,71.1909
1213.9700,71.2659
1214.9342,71.3901
1215.8984,71.561
1216.8627,71.7763
1217.8269,72.033
1218.7911,72.325
1219.7554,72.6429
1220.7196,72.9761
1221.6838,73.3149
1222.6481,73.6526
1223.6123,73.9851
1224.5765,74.3091
1225.5408,74.6204
1226.5050,74.9139
1227.4692,75.1844
1228.4335,75.4289
1229.3977,75.647
1230.3619,75.8414
1231.3262,76.0166
1232.2904,76.1788
1233.2546,76.3341
1234.2189,76.4855
1235.1831,76.6314
1236.1473,76.7643
1237.1116,76.8761
1238.0758,76.9645
1239.0400,77.0398
1240.0043,77.1244
1240.9685,77.2438
1241.9327,77.4146
1242.8970,77.6334
1243.8612,77.878
1244.8254,78.1171
1245.7897,78.3249
1246.7539,78.4912
1247.7181,78.6212
1248.6824,78.7275
1249.6466,78.8201
1250.6108,78.9008
1251.5751,78.9642
1252.5393,79.0013
1253.5035,79.0051
1254.4678,78.9727
1255.4320,78.9058
1256.3962,78.81
1257.3605,78.6925
1258.3247,78.5613
1259.2889,78.4225
1260.2532,78.2794
1261.2174,78.1314
1262.1816,77.9762
1263.1459,77.8115
1264.1101,77.6383
1265.0743,77.4613
1266.0386,77.289
1267.0028,77.1324
1267.9670,77.0039
1268.9313,76.9159
1269.8955,76.8792
1270.8597,76.9012
1271.8240,76.9839
1272.7882,77.1233
1273.7524,77.3114
1274.7167,77.5392
1275.6809,77.7988
1276.6451,78.0849
1277.6094,78.3942
1278.5736,78.7231
1279.5378,79.0665
1280.5021,79.4171
1281.4663,79.7664
1282.4305,80.1065
1283.3948,80.4318
1284.3590,80.7407
1285.3232,81.0352
1286.2875,81.3195
1287.2517,81.5975
1288.2159,81.8704
1289.1802,82.1354
1290.1444,82.3873
1291.1086,82.6206
1292.0729,82.8323
1293.0371,83.0234
1294.0013,83.1984
1294.9656,83.3626
1295.9298,83.5203
1296.8940,83.6725
1297.8583,83.8175
1298.8225,83.9516
1299.7867,84.0707
1300.7510,84.1717
1301.7152,84.2511
1302.6794,84.3069
1303.6437,84.338
1304.6079,84.3445
1305.5721,84.3277
1306.5364,84.2896
1307.5006,84.2322
1308.4648,84.1566
1309.4291,84.0638
1310.3933,83.956
1311.3575,83.8375
1312.3218,83.7132
1313.2860,83.5873
1314.2502,83.4608
1315.2145,83.3326
1316.1787,83.2021
1317.1429,83.0721
1318.1072,82.9489
1319.0714,82.8389
1320.0356,82.744
1320.9999,82.6597
1321.9641,82.5789
1322.9283,82.4973
1323.8926,82.4168
1324.8568,82.3452
1325.8210,82.2939
1326.7853,82.2735
1327.7495,82.2921
1328.7137,82.3551
1329.6780,82.4657
1330.6422,82.6241
1331.6064,82.8238
1332.5707,83.0503
1333.5349,83.2832
1334.4991,83.5041
1335.4634,83.7064
1336.4276,83.9019
1337.3918,84.1219
1338.3561,84.4034
1339.3203,84.7598
1340.2845,85.1599
1341.2488,85.5452
1342.2130,85.8694
1343.1772,86.118
1344.1415,86.3
1345.1057,86.4322
1346.0699,86.5299
1347.0342,86.6043
1347.9984,86.6618
1348.9626,86.704
1349.9269,86.7285
1350.8911,86.7319
1351.8553,86.7136
1352.8196,86.6785
1353.7838,86.6357
1354.7480,86.5935
1355.7123,86.5531
1356.6765,86.5073
1357.6407,86.4451
1358.6050,86.3598
1359.5692,86.2553
1360.5334,86.1507
1361.4977,86.078
1362.4619,86.0602
1363.4261,86.0867
1364.3904,86.1206
1365.3546,86.133
1366.3188,86.1189
1367.2831,86.0882
1368.2473,86.0512
1369.2115,86.0104
1370.1758,85.962
1371.1400,85.9028
1372.1042,85.8399
1373.0685,85.7946
1374.0327,85.794
1374.9969,85.8493
1375.9612,85.944
1376.9254,86.0503
1377.8896,86.1532
1378.8539,86.2532
1379.8181,86.3545
1380.7823,86.4542
1381.7466,86.5426
1382.7108,86.6127
1383.6750,86.6689
1384.6393,86.7268
1385.6035,86.806
1386.5677,86.9119
1387.5320,87.0145
1388.4962,87.0542
1389.4604,86.9868
1390.4247,86.8145
1391.3889,86.5731
1392.3531,86.3101
1393.3174,86.0775
1394.2816,85.927
1395.2458,85.8866
1396.2101,85.9337
1397.1743,86.0009
1398.1385,86.0199
1399.1028,85.9558
1400.0670,85.8101
1401.0313,85.6034
1401.9955,85.3591
1402.9597,85.0955
1403.9240,84.8266
1404.8882,84.5646
1405.8524,84.3168
1406.8167,84.0817
1407.7809,83.8512
1408.7451,83.6179
1409.7094,83.3762
1410.6736,83.1219
1411.6378,82.8529
1412.6021,82.5711
1413.5663,82.2829
1414.5305,81.9924
1415.4948,81.6931
1416.4590,81.3683
1417.4232,81.0109
1418.3875,80.6427
1419.3517,80.2907
1420.3159,79.9527
1421.2802,79.6187
1422.2444,79.3031
1423.2086,79.0356
1424.1729,78.8385
1425.1371,78.7168
1426.1013,78.6654
1427.0656,78.6826
1428.0298,78.7785
1428.9940,78.965
1429.9583,79.234
1430.9225,79.5498
1431.8867,79.8741
1432.8510,80.1948
1433.8152,80.5245
1434.7794,80.8759
1435.7437,81.2322
1436.7079,81.524
1437.6721,81.6507
1438.6364,81.562
1439.6006,81.2938
1440.5648,80.9163
1441.5291,80.4795
1442.4933,80.0009
1443.4575,79.4805
1444.4218,78.9154
1445.3860,78.3092
1446.3502,77.6751
1447.3145,77.0386
1448.2787,76.4325
1449.2429,75.8836
1450.2072,75.4046
1451.1714,75.0011
1452.1356,74.6777
1453.0999,74.4295
1454.0641,74.2271
1455.0283,74.029
1455.9926,73.8565
1456.9568,73.8443
1457.9210,74.0156
1458.8853,74.1591
1459.8495,74.1642
1460.8137,74.1115
1461.7780,74.1281
1462.7422,74.3269
1463.7064,74.8024
1464.6707,75.5813
1465.6349,76.5463
1466.5991,77.5013
1467.5634,78.3459
1468.5276,79.1191
1469.4918,79.9193
1470.4561,80.8424
1471.4203,81.9649
1472.3845,83.305
1473.3488,84.7244
1474.3130,85.9583
1475.2772,86.8509
1476.2415,87.4379
1477.2057,87.8213
1478.1699,88.0778
1479.1342,88.2507
1480.0984,88.3669
1481.0626,88.4452
1482.0269,88.494
1482.9911,88.5095
1483.9553,88.4804
1484.9196,88.3934
1485.8838,88.2319
1486.8480,87.9844
1487.8123,87.6784
1488.7765,87.406
1489.7407,87.2418
1490.7050,87.1387
1491.6692,87.0037
1492.6334,86.8044
1493.5977,86.55
1494.5619,86.2415
1495.5261,85.8678
1496.4904,85.4447
1497.4546,85.033
1498.4188,84.6753
1499.3831,84.3506
1500.3473,84.039
1501.3115,83.7664
1502.2758,83.5659
1503.2400,83.4171
1504.2042,83.1892
1505.1685,82.619
1506.1327,81.4822
1507.0969,80.0559
1508.0612,78.9615
1509.0254,78.2598
1509.9896,77.6816
1510.9539,77.1134
1511.9181,76.5704
1512.8823,76.1161
1513.8466,75.8461
1514.8108,75.8696
1515.7750,76.2556
1516.7393,76.9849
1517.7035,77.9932
1518.6677,79.2804
1519.6320,80.9432
1520.5962,83.033
1521.5604,85.3602
1522.5247,87.5518
1523.4889,89.3716
1524.4531,90.8776
1525.4174,92.2582
1526.3816,93.6058
1527.3458,94.8547
1528.3101,95.8927
1529.2743,96.6845
1530.2385,97.2908
1531.2028,97.8173
1532.1670,98.3529
1533.1312,98.9124
1534.0955,99.4242
1535.0597,99.8176
1536.0239,100.101
1536.9882,100.311
1537.9524,100.412
1538.9166,100.288
1539.8809,99.9352
1540.8451,99.6992
1541.8093,99.8549
1542.7736,100.189
1543.7378,100.467
1544.7020,100.642
1545.6663,100.724
1546.6305,100.724
1547.5947,100.659
1548.5590,100.558
1549.5232,100.441
1550.4874,100.315
1551.4517,100.17
1552.4159,100.008
1553.3801,99.8553
1554.3444,99.7897
1555.3086,99.7838
1556.2728,99.7807
1557.2371,99.7132
1558.2013,99.6714
1559.1655,99.7491
1560.1298,99.6675
1561.0940,99.2576
1562.0582,98.6849
1563.0225,98.1432
1563.9867,97.7206
1564.9509,97.4169
1565.9152,97.1787
1566.8794,96.9295
1567.8436,96.606
1568.8079,96.1976
1569.7721,95.7496
1570.7363,95.3185
1571.7006,94.9365
1572.6648,94.5969
1573.6290,94.2404
1574.5933,93.7689
1575.5575,93.1306
1576.5217,92.4093
1577.4860,91.7382
1578.4502,91.1479
1579.4144,90.5985
1580.3787,90.0564
1581.3429,89.5018
1582.3071,88.9261
1583.2714,88.3369
1584.2356,87.7549
1585.1998,87.1967
1586.1641,86.6665
1587.1283,86.163
1588.0925,85.6887
1589.0568,85.2503
1590.0210,84.8508
1590.9852,84.4854
1591.9495,84.1454
1592.9137,83.8272
1593.8779,83.5351
1594.8422,83.2758
1595.8064,83.0481
1596.7706,82.841
1597.7349,82.6406
1598.6991,82.4395
1599.6633,82.241
1600.6276,82.058
1601.5918,81.9064
1602.5560,81.7965
1603.5203,81.7263
1604.4845,81.6831
1605.4487,81.6547
1606.4130,81.641
1607.3772,81.6592
1608.3414,81.7346
1609.3057,81.8781
1610.2699,82.0734
1611.2341,82.2957
1612.1984,82.5419
1613.1626,82.8406
1614.1268,83.248
1615.0911,83.8371
1616.0553,84.6327
1617.0195,85.5002
1617.9838,86.2115
1618.9480,86.6819
1619.9122,87.0116
1620.8765,87.344
1621.8407,87.7647
1622.8049,88.2734
1623.7692,88.7971
1624.7334,89.2485
1625.6976,89.5969
1626.6619,89.8747
1627.6261,90.122
1628.5903,90.3463
1629.5546,90.5361
1630.5188,90.6964
1631.4830,90.852
1632.4473,91.0113
1633.4115,91.1357
1634.3757,91.1722
1635.3400,91.1494
1636.3042,91.1622
1637.2684,91.1975
1638.2327,91.1734
1639.1969,91.0868
1640.1611,90.9912
1641.1254,90.9319
1642.0896,90.9224
1643.0538,90.9336
1644.0181,90.8893
1644.9823,90.7034
1645.9465,90.386
1646.9108,90.0879
1647.8750,89.9463
1648.8392,89.9847
1649.8035,90.1736
1650.7677,90.4363
1651.7319,90.6253
1652.6962,90.6304
1653.6604,90.4994
1654.6246,90.2346
1655.5889,89.8057
1656.5531,89.332
1657.5173,88.9523
1658.4816,88.7144
1659.4458,88.5821
1660.4100,88.4827
1661.3743,88.3645
1662.3385,88.2246
1663.3027,88.0813
1664.2670,87.9445
1665.2312,87.819
1666.1954,87.6994
1667.1597,87.5586
1668.1239,87.369
1669.0881,87.1511
1670.0524,86.9734
1671.0166,86.8774
1671.9808,86.8494
1672.9451,86.8599
1673.9093,86.8761
1674.8735,86.8471
1675.8378,86.7149
1676.8020,86.4575
1677.7662,86.1218
1678.7305,85.8022
1679.6947,85.5794
1680.6589,85.4714
1681.6232,85.4204
1682.5874,85.3384
1683.5516,85.1946
1684.5159,85.0036
1685.4801,84.7274
1686.4443,84.3447
1687.4086,83.9131
1688.3728,83.5079
1689.3370,83.1746
1690.3013,82.9253
1691.2655,82.7448
1692.2297,82.5925
1693.1940,82.4057
1694.1582,82.1181
1695.1224,81.7018
1696.0867,81.2155
1697.0509,80.8011
1698.0151,80.5815
1698.9794,80.5259
1699.9436,80.4573
1700.9078,80.2242
1701.8721,79.8275
1702.8363,79.3806
1703.8005,79.0078
1704.7648,78.7828
1705.7290,78.7137
1706.6932,78.7508
1707.6575,78.8202
1708.6217,78.8724
1709.5859,78.9042
1710.5502,78.9406
1711.5144,79.0036
1712.4786,79.0981
1713.4429,79.2197
1714.4071,79.3853
1715.3713,79.6798
1716.3356,80.2334
1717.2998,81.0196
1718.2640,81.7538
1719.2283,82.2114
1720.1925,82.4351
1721.1567,82.5897
1722.1210,82.8034
1723.0852,83.1206
1724.0494,83.515
1725.0137,83.9256
1725.9779,84.298
1726.9421,84.6123
1727.9064,84.8856
1728.8706,85.1542
1729.8348,85.4569
1730.7991,85.8286
1731.7633,86.3051
1732.7275,86.9088
1733.6918,87.571
1734.6560,88.108
1735.6202,88.4
1736.5845,88.5162
1737.5487,88.6113
1738.5129,88.7957
1739.4772,89.0919
1740.4414,89.4495
1741.4056,89.789
1742.3699,90.0583
1743.3341,90.2609
1744.2983,90.437
1745.2626,90.626
1746.2268,90.8516
1747.1910,91.135
1748.1553,91.5108
1749.1195,92.0049
1750.0837,92.5671
1751.0480,93.0674
1752.0122,93.4065
1752.9764,93.5915
1753.9407,93.6976
1754.9049,93.7976
1755.8691,93.928
1756.8334,94.0895
1757.7976,94.2667
1758.7618,94.4491
1759.7261,94.64
1760.6903,94.8473
1761.6545,95.0656
1762.6188,95.2721
1763.5830,95.4443
1764.5472,95.5825
1765.5115,95.7069
1766.4757,95.8365
1767.4399,95.972
1768.4042,96.0983
1769.3684,96.2035
1770.3326,96.3066
1771.2969,96.4614
1772.2611,96.7036
1773.2253,96.9864
1774.1896,97.2214
1775.1538,97.376
1776.1180,97.4878
1777.0823,97.6108
1778.0465,97.7729
1779.0107,97.9707
1779.9750,98.1841
1780.9392,98.3942
1781.9034,98.5924
1782.8677,98.7754
1783.8319,98.9357
1784.7961,99.0597
1785.7604,99.1386
1786.7246,99.183
1787.6888,99.2189
1788.6531,99.2672
1789.6173,99.3267
1790.5815,99.3812
1791.5458,99.4261
1792.5100,99.4682
1793.4742,99.4957
1794.4385,99.4924
1795.4027,99.4736
1796.3669,99.4749
1797.3312,99.5171
1798.2954,99.5947
1799.2596,99.6886
1800.2239,99.7827
1801.1881,99.8672
1802.1523,99.9344
1803.1166,99.9801
1804.0808,100.006
1805.0450,100.019
1806.0093,100.022
1806.9735,100.018
1807.9377,100.009
1808.9020,100.004
1809.8662,100.015
1810.8304,100.052
1811.7947,100.108
1812.7589,100.168
1813.7231,100.221
1814.6874,100.263
1815.6516,100.296
1816.6158,100.317
1817.5801,100.324
1818.5443,100.318
1819.5085,100.305
1820.4728,100.295
1821.4370,100.294
1822.4012,100.302
1823.3655,100.311
1824.3297,100.309
1825.2939,100.288
1826.2582,100.247
1827.2224,100.197
1828.1866,100.162
1829.1509,100.164
1830.1151,100.203
1831.0793,100.249
1832.0436,100.264
1833.0078,100.24
1833.9720,100.198
1834.9363,100.159
1835.9005,100.131
1836.8647,100.113
1837.8290,100.102
1838.7932,100.102
1839.7574,100.124
1840.7217,100.17
1841.6859,100.222
1842.6501,100.253
1843.6144,100.245
1844.5786,100.206
1845.5428,100.147
1846.5071,100.088
1847.4713,100.052
1848.4355,100.044
1849.3998,100.068
1850.3640,100.112
1851.3282,100.153
1852.2925,100.178
1853.2567,100.185
1854.2209,100.181
1855.1852,100.173
1856.1494,100.163
1857.1136,100.154
1858.0779,100.149
1859.0421,100.15
1860.0063,100.158
1860.9706,100.164
1861.9348,100.158
1862.8990,100.133
1863.8633,100.091
1864.8275,100.036
1865.7917,99.9778
1866.7560,99.9343
1867.7202,99.9383
1868.6844,100.011
1869.6487,100.124
1870.6129,100.221
1871.5771,100.271
1872.5414,100.283
1873.5056,100.282
1874.4698,100.281
1875.4341,100.283
1876.3983,100.284
1877.3625,100.282
1878.3268,100.279
1879.2910,100.277
1880.2552,100.276
1881.2195,100.273
1882.1837,100.266
1883.1479,100.254
1884.1122,100.238
1885.0764,100.224
1886.0406,100.216
1887.0049,100.215
1887.9691,100.22
1888.9333,100.229
1889.8976,100.236
1890.8618,100.235
1891.8260,100.221
1892.7903,100.201
1893.7545,100.187
1894.7188,100.187
1895.6830,100.204
1896.6472,100.233
1897.6115,100.261
1898.5757,100.278
1899.5399,100.281
1900.5042,100.274
1901.4684,100.262
1902.4326,100.249
1903.3969,100.234
1904.3611,100.211
1905.3253,100.178
1906.2896,100.138
1907.2538,100.101
1908.2180,100.079
1909.1823,100.083
1910.1465,100.109
1911.1107,100.144
1912.0750,100.174
1913.0392,100.196
1914.0034,100.215
1914.9677,100.234
1915.9319,100.251
1916.8961,100.258
1917.8604,100.245
1918.8246,100.205
1919.7888,100.144
1920.7531,100.081
1921.7173,100.039
1922.6815,100.032
1923.6458,100.06
1924.6100,100.105
1925.5742,100.145
1926.5385,100.17
1927.5027,100.179
1928.4669,100.177
1929.4312,100.17
1930.3954,100.163
1931.3596,100.156
1932.3239,100.15
1933.2881,100.147
1934.2523,100.146
1935.2166,100.147
1936.1808,100.144
1937.1450,100.136
1938.1093,100.12
1939.0735,100.098
1940.0377,100.072
1941.0020,100.045
1941.9662,100.025
1942.9304,100.018
1943.8947,100.024
1944.8589,100.037
1945.8231,100.055
1946.7874,100.076
1947.7516,100.099
1948.7158,100.119
1949.6801,100.133
1950.6443,100.138
1951.6085,100.135
1952.5728,100.13
1953.5370,100.129
1954.5012,100.133
1955.4655,100.142
1956.4297,100.152
1957.3939,100.162
1958.3582,100.168
1959.3224,100.173
1960.2866,100.175
1961.2509,100.174
1962.2151,100.166
1963.1793,100.152
1964.1436,100.135
1965.1078,100.12
1966.0720,100.116
1967.0363,100.128
1968.0005,100.156
1968.9647,100.189
1969.9290,100.217
1970.8932,100.237
1971.8574,100.247
1972.8217,100.252
1973.7859,100.255
1974.7501,100.259
1975.7144,100.263
1976.6786,100.266
1977.6428,100.267
1978.6071,100.268
1979.5713,100.269
1980.5355,100.27
1981.4998,100.273
1982.4640,100.274
1983.4282,100.271
1984.3925,100.263
1985.3567,100.251
1986.3209,100.235
1987.2852,100.218
1988.2494,100.202
1989.2136,100.191
1990.1779,100.185
1991.1421,100.19
1992.1063,100.204
1993.0706,100.225
1994.0348,100.245
1994.9990,100.26
1995.9633,100.266
1996.9275,100.267
1997.8917,100.265
1998.8560,100.264
1999.8202,100.266
2000.7844,100.271
2001.7487,100.276
2002.7129,100.278
2003.6771,100.276
2004.6414,100.27
2005.6056,100.261
2006.5698,100.253
2007.5341,100.247
2008.4983,100.246
2009.4625,100.248
2010.4268,100.249
2011.3910,100.247
2012.3552,100.238
2013.3195,100.221
2014.2837,100.197
2015.2479,100.173
2016.2122,100.157
2017.1764,100.152
2018.1406,100.161
2019.1049,100.176
2020.0691,100.19
2021.0333,100.199
2021.9976,100.199
2022.9618,100.195
2023.9260,100.19
2024.8903,100.187
2025.8545,100.185
2026.8187,100.185
2027.7830,100.184
2028.7472,100.182
2029.7114,100.178
2030.6757,100.173
2031.6399,100.168
2032.6041,100.163
2033.5684,100.159
2034.5326,100.155
2035.4968,100.152
2036.4611,100.147
2037.4253,100.139
2038.3895,100.127
2039.3538,100.112
2040.3180,100.097
2041.2822,100.087
2042.2465,100.083
2043.2107,100.084
2044.1749,100.09
2045.1392,100.094
2046.1034,100.095
2047.0676,100.092
2048.0320,100.086
2048.9961,100.078
2049.9604,100.072
2050.9246,100.067
2051.8889,100.064
2052.8530,100.06
2053.8174,100.056
2054.7815,100.05
2055.7458,100.043
2056.7100,100.038
2057.6743,100.033
2058.6384,100.028
2059.6028,100.022
2060.5669,100.012
2061.5313,99.9999
2062.4954,99.9872
2063.4597,99.9786
2064.4238,99.978
2065.3882,99.9864
2066.3523,100.001
2067.3167,100.018
2068.2808,100.031
2069.2451,100.04
2070.2092,100.043
2071.1736,100.043
2072.1377,100.042
2073.1021,100.042
2074.0662,100.043
2075.0305,100.046
2075.9946,100.049
2076.9590,100.052
2077.9231,100.055
2078.8875,100.056
2079.8516,100.058
2080.8159,100.059
2081.7800,100.061
2082.7444,100.063
2083.7085,100.065
2084.6729,100.068
2085.6370,100.071
2086.6013,100.074
2087.5654,100.078
2088.5298,100.082
2089.4939,100.085
2090.4583,100.086
2091.4224,100.086
2092.3867,100.083
2093.3508,100.081
2094.3152,100.081
2095.2793,100.083
2096.2437,100.086
2097.2078,100.091
2098.1721,100.094
2099.1362,100.096
2100.1006,100.096
2101.0647,100.096
2102.0291,100.097
2102.9932,100.099
2103.9575,100.1
2104.9216,100.101
2105.8860,100.1
2106.8501,100.097
2107.8145,100.093
2108.7786,100.088
2109.7429,100.083
2110.7070,100.079
2111.6714,100.075
2112.6355,100.073
2113.5999,100.073
2114.5640,100.075
2115.5283,100.079
2116.4924,100.084
2117.4568,100.087
2118.4209,100.089
2119.3853,100.089
2120.3494,100.087
2121.3137,100.084
2122.2778,100.081
2123.2422,100.077
2124.2063,100.074
2125.1707,100.071
2126.1348,100.071
2127.0991,100.075
2128.0632,100.084
2129.0276,100.095
2129.9917,100.105
2130.9561,100.111
2131.9202,100.11
2132.8845,100.102
2133.8486,100.092
2134.8130,100.082
2135.7771,100.078
2136.7415,100.081
2137.7056,100.09
2138.6699,100.101
2139.6340,100.112
2140.5984,100.119
2141.5625,100.124
2142.5269,100.126
2143.4910,100.129
2144.4553,100.132
2145.4194,100.136
2146.3838,100.141
2147.3479,100.146
2148.3123,100.15
2149.2764,100.151
2150.2407,100.151
2151.2048,100.15
2152.1692,100.151
2153.1333,100.154
2154.0977,100.161
2155.0618,100.171
2156.0261,100.182
2156.9902,100.192
2157.9546,100.201
2158.9187,100.207
2159.8831,100.211
2160.8472,100.214
2161.8115,100.217
2162.7756,100.221
2163.7400,100.226
2164.7041,100.231
2165.6685,100.235
2166.6326,100.238
2167.5969,100.24
2168.5610,100.242
2169.5254,100.244
2170.4895,100.248
2171.4539,100.252
2172.4180,100.258
2173.3823,100.264
2174.3464,100.269
2175.3108,100.274
2176.2749,100.277
2177.2393,100.28
2178.2034,100.282
2179.1677,100.284
2180.1318,100.285
2181.0962,100.285
2182.0603,100.284
2183.0247,100.281
2183.9888,100.279
2184.9531,100.278
2185.9172,100.28
2186.8816,100.285
2187.8457,100.292
2188.8101,100.3
2189.7742,100.305
2190.7385,100.309
2191.7026,100.31
2192.6670,100.311
2193.6311,100.312
2194.5955,100.314
2195.5596,100.316
2196.5239,100.317
2197.4880,100.316
2198.4524,100.313
2199.4165,100.311
2200.3809,100.309
2201.3450,100.309
2202.3093,100.311
2203.2734,100.314
2204.2378,100.317
2205.2019,100.318
2206.1663,100.318
2207.1304,100.318
2208.0947,100.317
2209.0588,100.318
2210.0232,100.32
2210.9873,100.321
2211.9517,100.32
2212.9158,100.316
2213.8801,100.31
2214.8442,100.305
2215.8086,100.301
2216.7727,100.299
2217.7371,100.298
2218.7012,100.296
2219.6655,100.292
2220.6296,100.286
2221.5940,100.281
2222.5581,100.277
2223.5225,100.277
2224.4866,100.279
2225.4509,100.28
2226.4150,100.279
2227.3794,100.275
2228.3435,100.267
2229.3079,100.255
2230.2720,100.242
2231.2363,100.228
2232.2004,100.216
2233.1648,100.207
2234.1289,100.203
2235.0933,100.203
2236.0574,100.206
2237.0217,100.207
2237.9858,100.205
2238.9502,100.198
2239.9143,100.187
2240.8787,100.174
2241.8428,100.161
2242.8071,100.149
2243.7712,100.138
2244.7356,100.129
2245.6997,100.119
2246.6641,100.109
2247.6282,100.099
2248.5925,100.089
2249.5566,100.079
2250.5210,100.068
2251.4851,100.056
2252.4495,100.043
2253.4136,100.029
2254.3779,100.014
2255.3420,99.9983
2256.3064,99.9818
2257.2705,99.9647
2258.2349,99.9476
2259.1990,99.9313
2260.1633,99.9163
2261.1274,99.9026
2262.0918,99.8898
2263.0559,99.8773
2264.0203,99.8652
2264.9844,99.8541
2265.9487,99.8446
2266.9128,99.8367
2267.8772,99.8296
2268.8413,99.8221
2269.8057,99.8135
2270.7698,99.804
2271.7341,99.7951
2272.6982,99.7885
2273.6626,99.7856
2274.6267,99.7869
2275.5911,99.7922
2276.5552,99.8012
2277.5195,99.8132
2278.4836,99.8278
2279.4480,99.8433
2280.4121,99.8573
2281.3765,99.8662
2282.3406,99.8661
2283.3049,99.854
2284.2690,99.8285
2285.2334,99.7911
2286.1975,99.7453
2287.1619,99.6959
2288.1260,99.6467
2289.0903,99.5991
2290.0544,99.5523
2291.0188,99.5053
2291.9829,99.4591
2292.9473,99.4171
2293.9114,99.3839
2294.8757,99.3627
2295.8398,99.3532
2296.8042,99.3532
2297.7683,99.3613
2298.7327,99.3793
2299.6968,99.4121
2300.6611,99.464
2301.6252,99.5335
2302.5896,99.6111
2303.5537,99.6811
2304.5181,99.7278
2305.4822,99.7439
2306.4465,99.7359
2307.4106,99.7233
2308.3750,99.7313
2309.3391,99.7794
2310.3035,99.8711
2311.2676,99.9923
2312.2319,100.118
2313.1960,100.226
2314.1604,100.308
2315.1245,100.372
2316.0889,100.439
2317.0530,100.526
2318.0173,100.64
2318.9814,100.765
2319.9458,100.864
2320.9099,100.887
2321.8743,100.791
2322.8384,100.569
2323.8027,100.257
2324.7668,99.93
2325.7312,99.6733
2326.6953,99.5453
2327.6597,99.556
2328.6238,99.661
2329.5881,99.7777
2330.5522,99.8216
2331.5166,99.7465
2332.4807,99.5648
2333.4451,99.3339
2334.4092,99.1208
2335.3735,98.9672
2336.3376,98.8751
2337.3020,98.8129
2338.2661,98.737
2339.2305,98.6306
2340.1946,98.502
2341.1589,98.4191
2342.1230,98.4994
2343.0874,98.8148
2344.0515,99.2521
2345.0159,99.5386
2345.9800,99.5024
2346.9443,99.2258
2347.9084,98.9308
2348.8728,98.8022
2349.8369,98.8961
2350.8013,99.1312
2351.7654,99.3353
2352.7297,99.3484
2353.6938,99.1403
2354.6582,98.8209
2355.6223,98.5047
2356.5867,98.209
2357.5508,97.91
2358.5151,97.6348
2359.4792,97.4557
2360.4436,97.4159
2361.4077,97.4987
2362.3721,97.6722
2363.3362,97.9299
2364.3005,98.28
2365.2646,98.7127
2366.2290,99.1912
2367.1931,99.6719
2368.1575,100.122
2369.1216,100.524
2370.0859,100.867
2371.0500,101.144
2372.0144,101.353
2372.9785,101.49
2373.9429,101.552
2374.9070,101.534
2375.8713,101.435
2376.8354,101.264
2377.7998,101.04
2378.7639,100.791
2379.7283,100.549
2380.6924,100.338
2381.6567,100.176
2382.6208,100.069
2383.5852,100.012
2384.5493,99.994
2385.5137,100.002
2386.4778,100.021
2387.4421,100.043
2388.4063,100.06
2389.3706,100.07
2390.3347,100.074
2391.2991,100.076
2392.2632,100.078
2393.2275,100.085
2394.1917,100.096
2395.1560,100.108
2396.1201,100.12
2397.0845,100.128
2398.0486,100.131
2399.0129,100.132
2399.9771,100.132
2400.9414,100.132
2401.9055,100.132
2402.8699,100.133
2403.8340,100.133
2404.7983,100.134
2405.7625,100.137
2406.7268,100.142
2407.6909,100.146
2408.6553,100.15
2409.6194,100.15
2410.5837,100.149
2411.5479,100.146
2412.5122,100.145
2413.4763,100.147
2414.4407,100.15
2415.4048,100.155
2416.3691,100.16
2417.3333,100.163
2418.2976,100.167
2419.2617,100.17
2420.2261,100.173
2421.1902,100.175
2422.1545,100.176
2423.1187,100.175
2424.0830,100.174
2425.0471,100.175
2426.0115,100.178
2426.9756,100.183
2427.9399,100.189
2428.9041,100.192
2429.8684,100.193
2430.8325,100.192
2431.7969,100.191
2432.7610,100.19
2433.7253,100.191
2434.6895,100.191
2435.6538,100.191
2436.6179,100.192
2437.5823,100.193
2438.5464,100.197
2439.5107,100.204
2440.4749,100.214
2441.4392,100.226
2442.4033,100.236
2443.3677,100.245
2444.3318,100.25
2445.2961,100.252
2446.2603,100.25
2447.2246,100.245
2448.1887,100.238
2449.1531,100.23
2450.1172,100.223
2451.0815,100.219
2452.0457,100.219
2453.0100,100.225
2453.9741,100.234
2454.9385,100.243
2455.9026,100.249
2456.8669,100.251
2457.8311,100.247
2458.7954,100.24
2459.7595,100.233
2460.7239,100.229
2461.6880,100.227
2462.6523,100.228
2463.6165,100.23
2464.5808,100.232
2465.5449,100.233
2466.5093,100.233
2467.4734,100.232
2468.4377,100.23
2469.4019,100.227
2470.3662,100.223
2471.3303,100.22
2472.2947,100.218
2473.2588,100.217
2474.2231,100.217
2475.1873,100.216
2476.1516,100.214
2477.1157,100.209
2478.0801,100.204
2479.0442,100.2
2480.0085,100.199
2480.9727,100.2
2481.9370,100.204
2482.9011,100.207
2483.8655,100.209
2484.8296,100.21
2485.7939,100.209
2486.7581,100.206
2487.7224,100.203
2488.6865,100.198
2489.6509,100.193
2490.6150,100.187
2491.5793,100.181
2492.5435,100.177
2493.5078,100.177
2494.4719,100.181
2495.4363,100.191
2496.4004,100.203
2497.3647,100.214
2498.3289,100.221
2499.2932,100.221
2500.2573,100.215
2501.2217,100.205
2502.1858,100.197
2503.1501,100.194
2504.1143,100.199
2505.0786,100.21
2506.0427,100.222
2507.0071,100.232
2507.9712,100.235
2508.9355,100.232
2509.8997,100.224
2510.8640,100.215
2511.8281,100.209
2512.7925,100.207
2513.7566,100.211
2514.7209,100.219
2515.6851,100.229
2516.6494,100.238
2517.6135,100.244
2518.5779,100.245
2519.5420,100.243
2520.5063,100.24
2521.4705,100.237
2522.4348,100.236
2523.3989,100.238
2524.3633,100.24
2525.3274,100.243
2526.2917,100.246
2527.2559,100.25
2528.2202,100.256
2529.1843,100.263
2530.1487,100.27
2531.1128,100.274
2532.0771,100.272
2533.0413,100.265
2534.0056,100.254
2534.9697,100.242
2535.9341,100.232
2536.8982,100.228
2537.8625,100.229
2538.8267,100.235
2539.7910,100.244
2540.7551,100.254
2541.7195,100.263
2542.6836,100.27
2543.6479,100.273
2544.6121,100.275
2545.5764,100.275
2546.5405,100.276
2547.5049,100.277
2548.4690,100.278
2549.4333,100.279
2550.3975,100.28
2551.3618,100.282
2552.3259,100.287
2553.2903,100.296
2554.2544,100.308
2555.2188,100.322
2556.1829,100.335
2557.1472,100.343
2558.1113,100.347
2559.0757,100.348
2560.0398,100.346
2561.0042,100.344
2561.9683,100.342
2562.9326,100.34
2563.8967,100.339
2564.8611,100.34
2565.8252,100.343
2566.7896,100.349
2567.7537,100.357
2568.7180,100.365
2569.6821,100.37
2570.6465,100.372
2571.6106,100.37
2572.5750,100.366
2573.5391,100.361
2574.5034,100.357
2575.4675,100.354
2576.4319,100.354
2577.3960,100.355
2578.3604,100.357
2579.3245,100.359
2580.2888,100.36
2581.2529,100.361
2582.2173,100.363
2583.1814,100.365
2584.1458,100.368
2585.1099,100.371
2586.0742,100.373
2587.0383,100.373
2588.0027,100.37
2588.9668,100.364
2589.9312,100.356
2590.8953,100.348
2591.8596,100.342
2592.8237,100.337
2593.7881,100.333
2594.7522,100.331
2595.7166,100.33
2596.6807,100.331
2597.6450,100.332
2598.6091,100.334
2599.5735,100.337
2600.5376,100.34
2601.5020,100.342
2602.4661,100.344
2603.4304,100.345
2604.3945,100.344
2605.3589,100.343
2606.3230,100.342
2607.2874,100.343
2608.2515,100.346
2609.2158,100.352
2610.1799,100.359
2611.1443,100.364
2612.1084,100.366
2613.0728,100.366
2614.0369,100.364
2615.0012,100.361
2615.9653,100.359
2616.9297,100.358
2617.8938,100.357
2618.8582,100.357
2619.8223,100.357
2620.7866,100.358
2621.7507,100.36
2622.7151,100.361
2623.6792,100.362
2624.6436,100.362
2625.6077,100.361
2626.5720,100.359
2627.5361,100.358
2628.5005,100.359
2629.4646,100.36
2630.4290,100.362
2631.3931,100.362
2632.3574,100.36
2633.3215,100.356
2634.2859,100.352
2635.2500,100.349
2636.2144,100.349
2637.1785,100.351
2638.1428,100.354
2639.1069,100.358
2640.0713,100.363
2641.0354,100.367
2641.9998,100.372
2642.9639,100.376
2643.9282,100.379
2644.8923,100.381
2645.8567,100.381
2646.8208,100.38
2647.7852,100.38
2648.7493,100.381
2649.7136,100.383
2650.6777,100.387
2651.6421,100.394
2652.6062,100.402
2653.5706,100.413
2654.5347,100.425
2655.4990,100.436
2656.4631,100.447
2657.4275,100.455
2658.3916,100.462
2659.3560,100.467
2660.3201,100.471
2661.2844,100.474
2662.2485,100.479
2663.2129,100.484
2664.1770,100.492
2665.1414,100.502
2666.1055,100.514
2667.0698,100.528
2668.0339,100.543
2668.9983,100.556
2669.9624,100.57
2670.9268,100.583
2671.8909,100.597
2672.8552,100.611
2673.8193,100.627
2674.7837,100.642
2675.7478,100.656
2676.7122,100.667
2677.6763,100.674
2678.6406,100.675
2679.6047,100.67
2680.5691,100.663
2681.5332,100.654
2682.4976,100.649
2683.4617,100.648
2684.4260,100.652
2685.3901,100.659
2686.3545,100.667
2687.3186,100.674
2688.2830,100.679
2689.2471,100.682
2690.2114,100.683
2691.1755,100.684
2692.1399,100.683
2693.1040,100.68
2694.0684,100.677
2695.0325,100.675
2695.9968,100.673
2696.9609,100.674
2697.9253,100.676
2698.8894,100.678
2699.8538,100.679
2700.8179,100.678
2701.7822,100.673
2702.7463,100.665
2703.7107,100.657
2704.6748,100.65
2705.6392,100.643
2706.6033,100.636
2707.5676,100.627
2708.5317,100.615
2709.4961,100.602
2710.4602,100.589
2711.4246,100.578
2712.3887,100.568
2713.3530,100.558
2714.3171,100.548
2715.2815,100.536
2716.2456,100.523
2717.2100,100.512
2718.1741,100.501
2719.1384,100.492
2720.1025,100.484
2721.0669,100.478
2722.0310,100.472
2722.9954,100.466
2723.9595,100.458
2724.9238,100.448
2725.8879,100.437
2726.8523,100.424
2727.8164,100.413
2728.7808,100.405
2729.7449,100.399
2730.7092,100.395
2731.6733,100.391
2732.6377,100.385
2733.6018,100.378
2734.5662,100.368
2735.5303,100.358
2736.4946,100.346
2737.4587,100.334
2738.4231,100.322
2739.3872,100.311
2740.3516,100.303
2741.3157,100.299
2742.2800,100.3
2743.2441,100.303
2744.2085,100.309
2745.1726,100.314
2746.1370,100.315
2747.1011,100.31
2748.0654,100.3
2749.0295,100.286
2749.9939,100.272
2750.9580,100.262
2751.9224,100.258
2752.8865,100.259
2753.8508,100.261
2754.8149,100.261
2755.7793,100.254
2756.7434,100.239
2757.7078,100.217
2758.6719,100.192
2759.6362,100.17
2760.6003,100.152
2761.5647,100.142
2762.5288,100.136
2763.4932,100.133
2764.4573,100.129
2765.4216,100.121
2766.3857,100.11
2767.3501,100.097
2768.3142,100.086
2769.2786,100.076
2770.2427,100.067
2771.2070,100.055
2772.1711,100.036
2773.1355,100.009
2774.0996,99.9757
2775.0640,99.9398
2776.0281,99.9065
2776.9924,99.878
2777.9565,99.853
2778.9209,99.8289
2779.8850,99.8014
2780.8494,99.7679
2781.8135,99.729
2782.7778,99.6878
2783.7419,99.6481
2784.7063,99.612
2785.6704,99.5788
2786.6348,99.5461
2787.5989,99.5107
2788.5632,99.471
2789.5273,99.4273
2790.4917,99.3813
2791.4558,99.3347
2792.4202,99.2882
2793.3843,99.2408
2794.3486,99.1914
2795.3127,99.1387
2796.2771,99.0829
2797.2412,99.025
2798.2056,98.966
2799.1697,98.9072
2800.1340,98.8488
2801.0981,98.791
2802.0625,98.7336
2803.0266,98.6759
2803.9910,98.6172
2804.9551,98.5562
2805.9194,98.4914
2806.8835,98.4215
2807.8479,98.3456
2808.8120,98.2635
2809.7764,98.175
2810.7405,98.0805
2811.7048,97.9807
2812.6689,97.8769
2813.6333,97.7707
2814.5974,97.6632
2815.5618,97.5541
2816.5259,97.4408
2817.4902,97.3195
2818.4543,97.1859
2819.4187,97.0369
2820.3828,96.8716
2821.3472,96.6907
2822.3113,96.4957
2823.2756,96.2882
2824.2397,96.0692
2825.2041,95.839
2826.1682,95.5979
2827.1326,95.3458
2828.0967,95.0826
2829.0610,94.808
2830.0251,94.5215
2830.9895,94.2235
2831.9536,93.9156
2832.9180,93.6004
2833.8821,93.2815
2834.8464,92.9622
2835.8105,92.6448
2836.7749,92.3312
2837.7390,92.0231
2838.7034,91.7235
2839.6675,91.4367
2840.6318,91.1661
2841.5959,90.9128
2842.5603,90.673
2843.5244,90.4393
2844.4888,90.2041
2845.4529,89.9646
2846.4172,89.7261
2847.3813,89.5011
2848.3457,89.3042
2849.3098,89.1443
2850.2742,89.0207
2851.2383,88.9228
2852.2026,88.8363
2853.1667,88.7492
2854.1311,88.6567
2855.0952,88.5602
2856.0596,88.4635
2857.0237,88.3687
2857.9880,88.2744
2858.9521,88.177
2859.9165,88.0732
2860.8806,87.9611
2861.8450,87.8407
2862.8091,87.713
2863.7734,87.5795
2864.7375,87.4424
2865.7019,87.3048
2866.6660,87.1703
2867.6304,87.0411
2868.5945,86.9173
2869.5588,86.7965
2870.5229,86.6752
2871.4873,86.5512
2872.4514,86.4247
2873.4158,86.2977
2874.3799,86.1733
2875.3442,86.0533
2876.3083,85.9373
2877.2727,85.8233
2878.2368,85.7091
2879.2012,85.5939
2880.1653,85.4803
2881.1296,85.3739
2882.0938,85.2825
2883.0581,85.2135
2884.0222,85.1709
2884.9866,85.1537
2885.9507,85.1559
2886.9150,85.1677
2887.8792,85.1787
2888.8435,85.1811
2889.8076,85.1728
2890.7720,85.1578
2891.7361,85.143
2892.7004,85.1325
2893.6646,85.122
2894.6289,85.0971
2895.5930,85.0385
2896.5574,84.9328
2897.5215,84.7825
2898.4858,84.6092
2899.4500,84.4453
2900.4143,84.3204
2901.3784,84.2471
2902.3428,84.2164
2903.3069,84.2039
2904.2712,84.1826
2905.2354,84.1342
2906.1997,84.0528
2907.1638,83.9422
2908.1282,83.8091
2909.0923,83.6588
2910.0566,83.4943
2911.0208,83.3182
2911.9851,83.1344
2912.9492,82.9481
2913.9136,82.7647
2914.8777,82.588
2915.8420,82.4193
2916.8062,82.2579
2917.7705,82.1017
2918.7346,81.9482
2919.6990,81.7959
2920.6631,81.6442
2921.6274,81.4942
2922.5916,81.3474
2923.5559,81.2046
2924.5200,81.0654
2925.4844,80.9294
2926.4485,80.7975
2927.4128,80.6734
2928.3770,80.5623
2929.3413,80.4697
2930.3054,80.399
2931.2698,80.3513
2932.2339,80.3274
2933.1982,80.3291
2934.1624,80.3602
2935.1267,80.4254
2936.0908,80.528
2937.0552,80.6677
2938.0193,80.8409
2938.9836,81.0424
2939.9478,81.2679
2940.9121,81.5154
2941.8762,81.7847
2942.8406,82.075
2943.8047,82.3824
2944.7690,82.699
2945.7332,83.0141
2946.6975,83.3173
2947.6616,83.6019
2948.6260,83.8656
2949.5901,84.1105
2950.5544,84.34
2951.5186,84.5568
2952.4829,84.7619
2953.4470,84.9555
2954.4114,85.138
2955.3755,85.3116
2956.3398,85.4799
2957.3040,85.6467
2958.2683,85.8148
2959.2324,85.9842
2960.1968,86.1521
2961.1609,86.3138
2962.1252,86.4646
2963.0894,86.6024
2964.0537,86.7284
2965.0178,86.8472
2965.9822,86.965
2966.9463,87.0874
2967.9106,87.2189
2968.8748,87.3631
2969.8391,87.523
2970.8032,87.7018
2971.7676,87.9018
2972.7317,88.1227
2973.6960,88.3612
2974.6602,88.6114
2975.6245,88.8667
2976.5886,89.1212
2977.5530,89.3711
2978.5171,89.6147
2979.4814,89.8513
2980.4456,90.0788
2981.4099,90.2919
2982.3740,90.4813
2983.3384,90.6373
2984.3025,90.7575
2985.2668,90.8536
2986.2310,90.9541
2987.1953,91.096
2988.1594,91.3093
2989.1238,91.6012
2990.0879,91.9495
2991.0522,92.3113
2992.0164,92.6415
2992.9807,92.9126
2993.9448,93.1227
2994.9092,93.2913
2995.8733,93.4447
2996.8376,93.6027
2997.8018,93.7728
2998.7661,93.9529
2999.7302,94.1377
3000.6946,94.3246
3001.6587,94.5146
3002.6230,94.7106
3003.5872,94.9149
3004.5515,95.1276
3005.5156,95.3461
3006.4800,95.5657
3007.4441,95.7811
3008.4084,95.9884
3009.3726,96.1867
3010.3369,96.3797
3011.3010,96.5734
3012.2654,96.7729
3013.2295,96.9783
3014.1938,97.1842
3015.1580,97.3819
3016.1223,97.5637
3017.0864,97.7266
3018.0508,97.8726
3019.0149,98.0064
3019.9792,98.1327
3020.9434,98.2539
3021.9077,98.3711
3022.8718,98.4841
3023.8362,98.5929
3024.8003,98.6971
3025.7646,98.7955
3026.7288,98.8864
3027.6931,98.969
3028.6572,99.0445
3029.6216,99.1156
3030.5857,99.1851
3031.5500,99.2542
3032.5142,99.3217
3033.4785,99.3851
3034.4426,99.4435
3035.4070,99.4978
3036.3711,99.5505
3037.3354,99.6028
3038.2996,99.6533
3039.2639,99.6975
3040.2280,99.7301
3041.1924,99.7478
3042.1565,99.7507
3043.1208,99.7424
3044.0850,99.7278
3045.0493,99.6844
3046.0134,99.6374
3046.9778,99.5926
3047.9419,99.548
3048.9063,99.4992
3049.8704,99.4419
3050.8347,99.3732
3051.7988,99.2944
3052.7632,99.2104
3053.7273,99.1289
3054.6917,99.0565
3055.6558,98.9966
3056.6201,98.9477
3057.5842,98.9039
3058.5486,98.8574
3059.5127,98.801
3060.4771,98.7305
3061.4412,98.6457
3062.4055,98.5511
3063.3696,98.4549
3064.3340,98.3669
3065.2981,98.2945
3066.2625,98.2399
3067.2266,98.1993
3068.1909,98.1645
3069.1550,98.1266
3070.1194,98.0795
3071.0835,98.0207
3072.0479,97.9513
3073.0120,97.8741
3073.9763,97.792
3074.9404,97.7073
3075.9048,97.6223
3076.8689,97.5389
3077.8333,97.459
3078.7974,97.3843
3079.7617,97.3156
3080.7258,97.2532
3081.6902,97.1963
3082.6543,97.1431
3083.6187,97.091
3084.5828,97.037
3085.5471,96.9777
3086.5112,96.9113
3087.4756,96.8371
3088.4397,96.756
3089.4041,96.6693
3090.3682,96.5781
3091.3325,96.4836
3092.2966,96.3874
3093.2610,96.291
3094.2251,96.1961
3095.1895,96.1031
3096.1536,96.0111
3097.1179,95.9184
3098.0820,95.8245
3099.0464,95.7309
3100.0105,95.6408
3100.9749,95.5572
3101.9390,95.4806
3102.9033,95.4085
3103.8674,95.3362
3104.8318,95.2595
3105.7959,95.1768
3106.7603,95.0886
3107.7244,94.997
3108.6887,94.9035
3109.6528,94.8081
3110.6172,94.7094
3111.5813,94.606
3112.5457,94.4982
3113.5098,94.3881
3114.4741,94.2793
3115.4382,94.1749
3116.4026,94.0766
3117.3667,93.9838
3118.3311,93.8949
3119.2952,93.8082
3120.2595,93.7227
3121.2236,93.6381
3122.1880,93.5537
3123.1521,93.4689
3124.1165,93.3829
3125.0806,93.2956
3126.0449,93.2073
3127.0090,93.1171
3127.9734,93.0234
3128.9375,92.9238
3129.9019,92.8174
3130.8660,92.7066
3131.8303,92.5969
3132.7944,92.4947
3133.7588,92.4041
3134.7229,92.325
3135.6873,92.2531
3136.6514,92.1825
3137.6157,92.1082
3138.5798,92.027
3139.5442,91.9374
3140.5083,91.8394
3141.4727,91.7341
3142.4368,91.6237
3143.4011,91.5116
3144.3652,91.4011
3145.3296,91.2947
3146.2937,91.1933
3147.2581,91.0967
3148.2222,91.004
3149.1865,90.9141
3150.1506,90.8251
3151.1150,90.7344
3152.0791,90.639
3153.0435,90.5371
3154.0076,90.4284
3154.9719,90.3149
3155.9360,90.1992
3156.9004,90.0841
3157.8645,89.971
3158.8289,89.8608
3159.7930,89.7538
3160.7573,89.65
3161.7214,89.5488
3162.6858,89.4486
3163.6499,89.3471
3164.6143,89.242
3165.5784,89.1327
3166.5427,89.0207
3167.5068,88.9087
3168.4712,88.7996
3169.4353,88.7489
3170.3997,88.645
3171.3638,88.5398
3172.3281,88.4313
3173.2922,88.3203
3174.2566,88.2099
3175.2207,88.1035
3176.1851,88.0025
3177.1492,87.9049
3178.1135,87.8064
3179.0776,87.7033
3180.0420,87.5952
3181.0061,87.4857
3181.9705,87.3809
3182.9346,87.2848
3183.8989,87.1974
3184.8630,87.1136
3185.8274,87.0262
3186.7915,86.93
3187.7559,86.8249
3188.7200,86.7157
3189.6843,86.6092
3190.6484,86.5097
3191.6128,86.4161
3192.5769,86.3229
3193.5413,86.2232
3194.5054,86.113
3195.4697,85.994
3196.4338,85.8726
3197.3982,85.757
3198.3623,85.6529
3199.3267,85.5616
3200.2908,85.4802
3201.2551,85.4038
3202.2192,85.3267
3203.1836,85.2442
3204.1477,85.1522
3205.1121,85.0492
3206.0762,84.9367
3207.0405,84.8197
3208.0046,84.7052
3208.9690,84.5988
3209.9331,84.5023
3210.8975,84.4135
3211.8616,84.3284
3212.8259,84.2441
3213.7900,84.1606
3214.7544,84.0795
3215.7185,84.0012
3216.6829,83.9237
3217.6470,83.8437
3218.6113,83.7587
3219.5754,83.6688
3220.5398,83.5768
3221.5039,83.4857
3222.4683,83.3967
3223.4324,83.3092
3224.3967,83.2223
3225.3608,83.1365
3226.3252,83.0536
3227.2893,82.9753
3228.2537,82.9016
3229.2178,82.8303
3230.1821,82.7583
3231.1462,82.6841
3232.1106,82.6083
3233.0747,82.533
3234.0391,82.4597
3235.0032,82.3885
3235.9675,82.3175
3236.9316,82.2445
3237.8960,82.1681
3238.8601,82.0882
3239.8245,82.0057
3240.7886,81.922
3241.7529,81.8396
3242.7170,81.7611
3243.6814,81.69
3244.6455,81.6286
3245.6099,81.5768
3246.5740,81.5306
3247.5383,81.4838
3248.5024,81.4299
3249.4668,81.3646
3250.4309,81.2876
3251.3953,81.2026
3252.3594,81.1165
3253.3237,81.0368
3254.2878,80.9691
3255.2522,80.9152
3256.2163,80.8726
3257.1807,80.8366
3258.1448,80.8016
3259.1091,80.7629
3260.0732,80.7172
3261.0376,80.6626
3262.0017,80.5985
3262.9661,80.5257
3263.9302,80.447
3264.8945,80.3668
3265.8586,80.2898
3266.8230,80.2187
3267.7871,80.1533
3268.7515,80.0905
3269.7156,80.0265
3270.6799,79.9596
3271.6440,79.8916
3272.6084,79.8275
3273.5725,79.773
3274.5369,79.7315
3275.5010,79.7021
3276.4653,79.68
3277.4294,79.6584
3278.3938,79.6311
3279.3579,79.5948
3280.3223,79.5501
3281.2864,79.5005
3282.2507,79.4508
3283.2148,79.4041
3284.1792,79.3602
3285.1433,79.3154
3286.1077,79.2649
3287.0718,79.2052
3288.0361,79.1369
3289.0002,79.0646
3289.9646,78.9961
3290.9287,78.9387
3291.8931,78.8967
3292.8572,78.8698
3293.8215,78.8528
3294.7856,78.8383
3295.7500,78.819
3296.7141,78.7902
3297.6785,78.7508
3298.6426,78.7034
3299.6069,78.6523
3300.5710,78.6011
3301.5354,78.552
3302.4995,78.5052
3303.4639,78.4607
3304.4280,78.4191
3305.3923,78.382
3306.3564,78.3508
3307.3208,78.3255
3308.2849,78.3038
3309.2493,78.2827
3310.2134,78.2604
3311.1777,78.2371
3312.1418,78.2149
3313.1062,78.1953
3314.0703,78.1779
3315.0347,78.1597
3315.9988,78.137
3316.9631,78.1077
3317.9272,78.0722
3318.8916,78.0334
3319.8557,77.9953
3320.8201,77.9608
3321.7842,77.9317
3322.7485,77.9079
3323.7126,77.8884
3324.6770,77.8714
3325.6411,77.8546
3326.6055,77.8357
3327.5696,77.8136
3328.5339,77.7885
3329.4980,77.7624
3330.4624,77.7378
3331.4265,77.7169
3332.3909,77.7003
3333.3550,77.6871
3334.3193,77.6751
3335.2834,77.6617
3336.2478,77.6448
3337.2119,77.6233
3338.1763,77.5986
3339.1404,77.5741
3340.1047,77.5537
3341.0688,77.5403
3342.0332,77.5332
3342.9973,77.5283
3343.9617,77.5207
3344.9258,77.5077
3345.8901,77.4916
3346.8542,77.4783
3347.8186,77.4739
3348.7827,77.481
3349.7471,77.4963
3350.7112,77.5121
3351.6755,77.5205
3352.6396,77.5171
3353.6040,77.5028
3354.5681,77.4837
3355.5325,77.4681
3356.4966,77.4628
3357.4609,77.4702
3358.4250,77.4866
3359.3894,77.5039
3360.3535,77.5128
3361.3179,77.5075
3362.2820,77.4883
3363.2463,77.4622
3364.2104,77.4401
3365.1748,77.432
3366.1389,77.4428
3367.1033,77.471
3368.0674,77.5094
3369.0317,77.5493
3369.9958,77.5835
3370.9602,77.6082
3371.9243,77.6232
3372.8887,77.6309
3373.8528,77.635
3374.8171,77.6398
3375.7813,77.6491
3376.7456,77.6653
3377.7097,77.689
3378.6741,77.7179
3379.6382,77.7475
3380.6025,77.7726
3381.5667,77.7896
3382.5310,77.798
3383.4951,77.8012
3384.4595,77.8041
3385.4236,77.8113
3386.3879,77.8253
3387.3521,77.8467
3388.3164,77.876
3389.2805,77.9134
3390.2449,77.9586
3391.2090,78.0089
3392.1733,78.0592
3393.1375,78.1045
3394.1018,78.1427
3395.0659,78.1765
3396.0303,78.2119
3396.9944,78.2536
3397.9587,78.3014
3398.9229,78.3495
3399.8872,78.3902
3400.8513,78.4191
3401.8157,78.4382
3402.7798,78.4552
3403.7441,78.4794
3404.7083,78.5165
3405.6726,78.5667
3406.6367,78.6244
3407.6011,78.6825
3408.5652,78.7355
3409.5295,78.7823
3410.4937,78.8255
3411.4580,78.8691
3412.4221,78.9159
3413.3865,78.9651
3414.3506,79.0138
3415.3149,79.0594
3416.2791,79.1012
3417.2434,79.1422
3418.2075,79.1878
3419.1719,79.2434
3420.1360,79.3113
3421.1003,79.3895
3422.0645,79.4719
3423.0288,79.5519
3423.9929,79.6247
3424.9573,79.6898
3425.9214,79.75
3426.8857,79.8103
3427.8499,79.8757
3428.8142,79.9484
3429.7783,80.0269
3430.7427,80.1076
3431.7068,80.1871
3432.6711,80.265
3433.6353,80.3432
3434.5996,80.4241
3435.5637,80.5073
3436.5281,80.5891
3437.4922,80.6646
3438.4565,80.7307
3439.4207,80.7875
3440.3850,80.838
3441.3491,80.8851
3442.3135,80.9311
3443.2776,80.9775
3444.2419,81.0281
3445.2061,81.0891
3446.1704,81.1677
3447.1345,81.2664
3448.0989,81.3808
3449.0630,81.5006
3450.0273,81.6163
3450.9915,81.7227
3451.9558,81.8189
3452.9199,81.9061
3453.8843,81.9851
3454.8484,82.0559
3455.8127,82.1185
3456.7769,82.1749
3457.7412,82.2297
3458.7053,82.2895
3459.6697,82.3601
3460.6338,82.4444
3461.5981,82.5406
3462.5623,82.6437
3463.5266,82.7476
3464.4907,82.8487
3465.4551,82.947
3466.4192,83.0438
3467.3835,83.1404
3468.3477,83.2351
3469.3120,83.325
3470.2761,83.4084
3471.2405,83.4872
3472.2046,83.5671
3473.1689,83.6542
3474.1331,83.7499
3475.0974,83.8494
3476.0615,83.9437
3477.0259,84.0257
3477.9900,84.0956
3478.9543,84.1609
3479.9185,84.233
3480.8828,84.3201
3481.8469,84.4218
3482.8113,84.5299
3483.7754,84.6346
3484.7397,84.7318
3485.7039,84.8246
3486.6682,84.9211
3487.6323,85.028
3488.5967,85.1466
3489.5608,85.2716
3490.5251,85.3944
3491.4893,85.5085
3492.4536,85.6124
3493.4177,85.7096
3494.3821,85.8055
3495.3462,85.9028
3496.3105,85.9981
3497.2747,86.0844
3498.2390,86.1571
3499.2031,86.2194
3500.1675,86.2846
3501.1316,86.3726
3502.0959,86.4989
3503.0601,86.662
3504.0244,86.8408
3504.9885,87.0085
3505.9529,87.1503
3506.9170,87.2682
3507.8813,87.3755
3508.8455,87.4872
3509.8098,87.6119
3510.7739,87.7476
3511.7383,87.8856
3512.7024,88.0187
3513.6667,88.1451
3514.6309,88.2665
3515.5952,88.3836
3516.5593,88.4946
3517.5237,88.5962
3518.4878,88.6882
3519.4521,88.7744
3520.4163,88.8623
3521.3806,88.9587
3522.3447,89.0652
3523.3091,89.1777
3524.2732,89.2897
3525.2375,89.4001
3526.2017,89.5163
3527.1660,89.6509
3528.1301,89.8105
3529.0945,89.9889
3530.0586,90.1687
3531.0229,90.3344
3531.9871,90.4817
3532.9514,90.6185
3533.9155,90.7584
3534.8799,90.9118
3535.8440,91.0785
3536.8083,91.2456
3537.7725,91.394
3538.7368,91.5095
3539.7009,91.5902
3540.6653,91.6459
3541.6294,91.6939
3542.5938,91.7558
3543.5579,91.8543
3544.5222,92.0048
3545.4863,92.2003
3546.4507,92.4085
3547.4148,92.5937
3548.3792,92.7413
3549.3433,92.8631
3550.3076,92.9843
3551.2717,93.1278
3552.2361,93.3025
3553.2002,93.4979
3554.1646,93.6915
3555.1287,93.8646
3556.0930,94.0105
3557.0571,94.1308
3558.0215,94.2276
3558.9856,94.3011
3559.9500,94.3518
3560.9141,94.3838
3561.8784,94.4052
3562.8425,94.4253
3563.8069,94.4546
3564.7710,94.5176
3565.7354,94.664
3566.6995,94.9289
3567.6638,95.2619
3568.6279,95.5545
3569.5923,95.7482
3570.5564,95.8628
3571.5208,95.9438
3572.4849,96.0203
3573.4492,96.0989
3574.4133,96.1767
3575.3777,96.2541
3576.3418,96.3371
3577.3062,96.4324
3578.2703,96.5397
3579.2346,96.6491
3580.1987,96.7471
3581.1631,96.8261
3582.1272,96.8891
3583.0916,96.9444
3584.0557,96.9975
3585.0200,97.0542
3585.9841,97.1343
3586.9485,97.2586
3587.9126,97.402
3588.8770,97.4997
3589.8411,97.5194
3590.8054,97.4869
3591.7695,97.4472
3592.7339,97.4305
3593.6980,97.4452
3594.6624,97.4814
3595.6265,97.5185
3596.5908,97.5417
3597.5549,97.5585
3598.5193,97.5966
3599.4834,97.683
3600.4478,97.821
3601.4119,97.985
3602.3762,98.1416
3603.3403,98.2745
3604.3047,98.3873
3605.2688,98.4927
3606.2332,98.6032
3607.1973,98.7264
3608.1616,98.8537
3609.1257,98.9574
3610.0901,99.0089
3611.0542,99.0019
3612.0186,98.9562
3612.9829,98.904
3613.9470,98.8732
3614.9114,98.877
3615.8755,98.9153
3616.8398,98.9812
3617.8040,99.0691
3618.7683,99.1692
3619.7324,99.2485
3620.6968,99.2606
3621.6609,99.1953
3622.6252,99.1018
3623.5894,99.0516
3624.5537,99.0883
3625.5178,99.2031
3626.4822,99.3503
3627.4463,99.4983
3628.4106,99.6493
3629.3748,99.7692
3630.3391,99.7893
3631.3032,99.7163
3632.2676,99.6306
3633.2317,99.6025
3634.1960,99.649
3635.1602,99.7424
3636.1245,99.8406
3637.0886,99.914
3638.0530,99.9541
3639.0171,99.9648
3639.9814,99.9514
3640.9456,99.9197
3641.9099,99.8812
3642.8740,99.8552
3643.8384,99.8564
3644.8025,99.872
3645.7668,99.8486
3646.7310,99.7339
3647.6953,99.6017
3648.6594,99.6708
3649.6238,99.9637
3650.5879,100.214
3651.5522,100.276
3652.5164,100.223
3653.4807,100.159
3654.4448,100.133
3655.4092,100.137
3656.3733,100.145
3657.3376,100.134
3658.3018,100.103
3659.2661,100.072
3660.2302,100.063
3661.1946,100.08
3662.1587,100.103
3663.1230,100.114
3664.0872,100.114
3665.0515,100.121
3666.0156,100.139
3666.9800,100.145
3667.9441,100.112
3668.9084,100.053
3669.8726,100.012
3670.8369,100.009
3671.8010,100.026
3672.7654,100.036
3673.7295,100.022
3674.6938,99.9988
3675.6580,100.012
3676.6223,100.061
3677.5864,100.091
3678.5508,100.082
3679.5149,100.06
3680.4792,100.043
3681.4434,100.027
3682.4077,100.006
3683.3718,99.9882
3684.3362,99.9923
3685.3003,100.018
3686.2646,100.025
3687.2288,99.9616
3688.1931,99.833
3689.1572,99.7315
3690.1216,99.7206
3691.0857,99.7629
3692.0500,99.8059
3693.0142,99.839
3693.9785,99.8714
3694.9426,99.9086
3695.9070,99.9523
3696.8711,100.006
3697.8354,100.072
3698.7996,100.15
3699.7639,100.23
3700.7280,100.3
3701.6924,100.346
3702.6565,100.358
3703.6208,100.334
3704.5850,100.293
3705.5493,100.26
3706.5134,100.247
3707.4778,100.241
3708.4419,100.228
3709.4063,100.244
3710.3704,100.375
3711.3347,100.646
3712.2988,100.928
3713.2632,101.078
3714.2273,101.076
3715.1917,100.984
3716.1558,100.865
3717.1201,100.747
3718.0842,100.626
3719.0486,100.493
3720.0127,100.351
3720.9771,100.215
3721.9412,100.108
3722.9055,100.045
3723.8696,100.026
3724.8340,100.038
3725.7981,100.06
3726.7625,100.075
3727.7266,100.087
3728.6909,100.111
3729.6550,100.148
3730.6194,100.178
3731.5835,100.159
3732.5479,100.073
3733.5120,99.9761
3734.4763,99.9817
3735.4404,100.117
3736.4048,100.261
3737.3689,100.31
3738.3333,100.299
3739.2974,100.345
3740.2617,100.53
3741.2258,100.847
3742.1902,101.19
3743.1543,101.399
3744.1187,101.366
3745.0828,101.114
3746.0471,100.764
3747.0112,100.446
3747.9756,100.237
3748.9397,100.164
3749.9041,100.241
3750.8682,100.435
3751.8325,100.6
3752.7966,100.602
3753.7610,100.459
3754.7251,100.279
3755.6895,100.143
3756.6536,100.076
3757.6179,100.074
3758.5820,100.12
3759.5464,100.181
3760.5105,100.223
3761.4749,100.233
3762.4390,100.219
3763.4033,100.197
3764.3674,100.172
3765.3318,100.148
3766.2959,100.127
3767.2603,100.116
3768.2244,100.123
3769.1887,100.152
3770.1528,100.193
3771.1172,100.22
3772.0813,100.216
3773.0457,100.181
3774.0098,100.135
3774.9741,100.095
3775.9382,100.061
3776.9026,100.027
3777.8667,99.9917
3778.8311,99.9571
3779.7952,99.9175
3780.7595,99.8604
3781.7236,99.7844
3782.6880,99.7054
3783.6521,99.6479
3784.6165,99.6315
3785.5806,99.6775
3786.5449,99.7562
3787.5090,99.8372
3788.4734,99.9002
3789.4375,99.9398
3790.4019,99.9613
3791.3660,99.9687
3792.3303,99.9554
3793.2944,99.9075
3794.2588,99.8182
3795.2229,99.7027
3796.1873,99.5953
3797.1514,99.5271
3798.1157,99.505
3799.0798,99.5129
3800.0442,99.5334
3801.0083,99.5636
3801.9727,99.6027
3802.9368,99.6469
3803.9011,99.7045
3804.8652,99.7909
3805.8296,99.9021
3806.7937,100.003
3807.7581,100.043
3808.7222,100.001
3809.6865,99.9147
3810.6506,99.8573
3811.6150,99.8754
3812.5791,99.9524
3813.5435,100.018
3814.5076,100.004
3815.4719,99.8963
3816.4360,99.7427
3817.4004,99.6054
3818.3645,99.5277
3819.3289,99.5274
3820.2930,99.5929
3821.2573,99.6723
3822.2214,99.6962
3823.1858,99.6409
3824.1499,99.5488
3825.1143,99.4841
3826.0784,99.4851
3827.0427,99.5505
3828.0068,99.6497
3828.9712,99.7448
3829.9353,99.8098
3830.8997,99.8406
3831.8638,99.8502
3832.8281,99.855
3833.7922,99.8594
3834.7566,99.8476
3835.7207,99.7933
3836.6851,99.6869
3837.6492,99.5586
3838.6135,99.4638
3839.5776,99.439
3840.5420,99.4864
3841.5061,99.5894
3842.4705,99.7199
3843.4346,99.8357
3844.3989,99.8915
3845.3630,99.868
3846.3274,99.7934
3847.2915,99.7348
3848.2559,99.7637
3849.2200,99.9137
3850.1843,100.153
3851.1484,100.397
3852.1128,100.59
3853.0769,100.746
3854.0413,100.804
3855.0054,100.653
3855.9697,100.348
3856.9338,100.048
3857.8982,99.8634
3858.8623,99.8073
3859.8267,99.8252
3860.7908,99.8415
3861.7551,99.8154
3862.7192,99.7706
3863.6836,99.7631
3864.6477,99.8176
3865.6121,99.9109
3866.5762,100.001
3867.5405,100.052
3868.5046,100.049
3869.4690,100.005
3870.4331,99.9615
3871.3975,99.9463
3872.3616,99.9576
3873.3259,99.9767
3874.2900,99.9954
3875.2544,100.02
3876.2185,100.055
3877.1829,100.091
3878.1470,100.105
3879.1113,100.081
3880.0754,100.026
3881.0398,99.9753
3882.0039,99.9662
3882.9683,100.016
3883.9324,100.111
3884.8967,100.214
3885.8608,100.278
3886.8252,100.281
3887.7893,100.234
3888.7537,100.163
3889.7178,100.094
3890.6821,100.042
3891.6462,100.012
3892.6106,99.9939
3893.5747,99.9721
3894.5391,99.9527
3895.5032,99.9557
3896.4675,99.9876
3897.4316,100.031
3898.3960,100.062
3899.3601,100.068
3900.3245,100.049
3901.2886,100.013
3902.2529,99.9784
3903.2170,99.9685
3904.1814,99.993
3905.1455,100.036
3906.1099,100.077
3907.0740,100.108
3908.0383,100.132
3909.0024,100.152
3909.9668,100.165
3910.9309,100.166
3911.8953,100.161
3912.8594,100.156
3913.8237,100.157
3914.7878,100.165
3915.7522,100.178
3916.7163,100.192
3917.6807,100.199
3918.6448,100.184
3919.6091,100.142
3920.5732,100.078
3921.5376,100.012
3922.5017,99.9617
3923.4661,99.9378
3924.4302,99.9379
3925.3945,99.9466
3926.3586,99.9472
3927.3230,99.9337
3928.2871,99.9119
3929.2515,99.8942
3930.2156,99.8956
3931.1799,99.9285
3932.1440,99.991
3933.1084,100.063
3934.0725,100.122
3935.0369,100.157
3936.0010,100.171
3936.9653,100.17
3937.9294,100.159
3938.8938,100.138
3939.8579,100.109
3940.8223,100.077
3941.7864,100.054
3942.7507,100.046
3943.7148,100.049
3944.6792,100.055
3945.6433,100.053
3946.6077,100.039
3947.5718,100.015
3948.5361,99.9909
3949.5002,99.9797
3950.4646,99.9876
3951.4287,100.013
3952.3931,100.048
3953.3572,100.085
3954.3215,100.117
3955.2856,100.137
3956.2500,100.143
3957.2141,100.137
3958.1785,100.124
3959.1426,100.114
3960.1069,100.113
3961.0710,100.125
3962.0354,100.149
3962.9995,100.177
3963.9639,100.201
3964.9280,100.211
3965.8923,100.208
3966.8564,100.194
3967.8208,100.176
3968.7849,100.157
3969.7493,100.14
3970.7134,100.123
3971.6777,100.107
3972.6418,100.095
3973.6062,100.095
3974.5703,100.112
3975.5347,100.143
3976.4988,100.181
3977.4631,100.213
3978.4272,100.231
3979.3916,100.231
3980.3557,100.218
3981.3201,100.2
3982.2842,100.185
3983.2485,100.178
3984.2126,100.177
3985.1770,100.179
3986.1411,100.182
3987.1055,100.186
3988.0696,100.192
3989.0339,100.197
3989.9980,100.198
3990.9624,100.187
3991.9265,100.166
3992.8909,100.141
3993.8550,100.124
3994.8193,100.123
3995.7834,100.139
3996.7478,100.164
3997.7119,100.183
3998.6763,100.189
3999.6404,100.185
4000.6047,99.9868

##### Extended Information
[Comments]
Sample name
Comment
User
Division
Company,HANKYONG

[Detailed Information]
Creation date,4/24/2024 11:34 AM

Data array type,Linear data array
Horizontal axis,Wavenumber [cm-1]
Vertical axis,%T
Start,649.893 cm-1
End,4000.6 cm-1
Data interval,0.964233 cm-1
Data points,3476    

[Measurement Information]
Model Name,FT/IR-4700typeA
Serial Number,D056761788

Accessory,ATR PRO ONE
Accessory S/N,C174761809
Incident angle,45 deg

Measurement Date,4/24/2024 11:33 AM

Light Source,Standard
Detector,TGS
Accumulation,32
Resolution,4 cm-1
Zero Filling,On
Apodization,Cosine
Gain,Auto (4)
Aperture,Auto (7.1 mm)
Scanning Speed,Auto (2 mm/sec)
Filter,Auto (30000 Hz)

