TITLE,
DATA TYPE,INFRARED SPECTRUM
ORIGIN,JASCO
OWNER,
DATE,24/04/24
TIME,11:36:28
SPECTROMETER/DATA SYSTEM,
LOCALE,1033
RESOLUTION,
DELTAX,0.964233
XUNITS,1/CM
YUNITS,TRANSMITTANCE
FIRSTX,  649.8934
LASTX, 4000.6047
NPOINTS,    3476
FIRSTY,   100.69552
MAXY,   101.49345
MINY,    49.35100
XYDATA
649.8934,100.696
650.8576,100.523
651.8218,100.392
652.7861,100.303
653.7503,100.23
654.7145,100.147
655.6788,100.027
656.6430,99.8521
657.6072,99.6254
658.5715,99.3776
659.5357,99.1657
660.4999,99.0441
661.4642,99.0222
662.4284,99.0429
663.3926,99.0029
664.3569,98.7841
665.3211,98.2708
666.2853,97.3822
667.2496,96.2036
668.2138,95.1693
669.1780,94.8107
670.1423,95.1085
671.1065,95.6225
672.0707,96.0336
673.0350,96.2455
673.9992,96.2802
674.9634,96.2089
675.9277,96.1195
676.8919,96.0861
677.8561,96.1447
678.8204,96.2939
679.7846,96.515
680.7488,96.7869
681.7131,97.0903
682.6773,97.4084
683.6415,97.731
684.6058,98.0557
685.5700,98.3824
686.5342,98.7002
687.4985,98.9788
688.4627,99.1739
689.4269,99.243
690.3912,99.1684
691.3554,98.9865
692.3196,98.8147
693.2839,98.821
694.2481,99.0982
695.2123,99.5729
696.1766,100.087
697.1408,100.514
698.1050,100.799
699.0693,100.94
700.0335,100.975
700.9977,100.955
701.9620,100.923
702.9262,100.906
703.8904,100.91
704.8547,100.932
705.8189,100.966
706.7831,101.001
707.7474,101.026
708.7116,101.028
709.6758,101
710.6401,100.944
711.6043,100.868
712.5685,100.779
713.5328,100.678
714.4970,100.553
715.4612,100.702
716.4255,100.459
717.3897,100.181
718.3539,99.9107
719.3182,99.6987
720.2824,99.5836
721.2466,99.567
722.2109,99.6132
723.1751,99.6719
724.1393,99.7036
725.1036,99.6936
726.0678,99.6752
727.0320,99.6693
727.9963,99.6664
728.9605,99.6803
729.9247,99.7189
730.8890,99.785
731.8532,99.8755
732.8174,99.98
733.7817,100.081
734.7459,100.157
735.7101,100.193
736.6744,100.186
737.6386,100.146
738.6028,100.092
739.5671,100.043
740.5313,100.012
741.4955,100.001
742.4598,100.001
743.4240,99.9966
744.3882,99.9761
745.3525,99.9323
746.3167,99.8663
747.2809,99.7857
748.2452,99.7002
749.2094,99.6175
750.1736,99.5398
751.1379,99.4642
752.1021,99.3844
753.0663,99.2949
754.0306,99.1936
754.9948,99.0829
755.9590,98.9694
756.9233,98.8624
757.8875,98.7729
758.8517,98.7117
759.8160,98.6858
760.7802,98.6948
761.7444,98.7282
762.7087,98.7675
763.6729,98.7934
764.6371,98.7943
765.6014,98.7729
766.5656,98.7428
767.5298,98.7201
768.4941,98.7123
769.4583,98.7136
770.4225,98.7089
771.3868,98.6835
772.3510,98.6318
773.3152,98.5592
774.2795,98.4767
775.2437,98.3925
776.2079,98.307
777.1722,98.2145
778.1364,98.1088
779.1006,97.9894
780.0649,97.8625
781.0291,97.7384
781.9933,97.6266
782.9576,97.5316
783.9218,97.4526
784.8860,97.3844
785.8503,97.3197
786.8145,97.2511
787.7787,97.1724
788.7430,97.0802
789.7072,96.9759
790.6714,96.8655
791.6357,96.7579
792.5999,96.6604
793.5641,96.5738
794.5284,96.4916
795.4926,96.4019
796.4568,96.2935
797.4211,96.1614
798.3853,96.0085
799.3495,95.8434
800.3138,95.6752
801.2780,95.5088
802.2422,95.3437
803.2065,95.1757
804.1707,94.9993
805.1349,94.8105
806.0992,94.6067
807.0634,94.3865
808.0276,94.1497
808.9919,93.8976
809.9561,93.6346
810.9203,93.3683
811.8846,93.1097
812.8488,92.8703
813.8130,92.6599
814.7773,92.4835
815.7415,92.3396
816.7057,92.2213
817.6700,92.1187
818.6342,92.0231
819.5984,91.9305
820.5627,91.8429
821.5269,91.7669
822.4911,91.7103
823.4554,91.678
824.4196,91.6689
825.3839,91.6752
826.3481,91.6841
827.3123,91.6808
828.2766,91.6515
829.2408,91.5857
830.2050,91.478
831.1693,91.3263
832.1335,91.1312
833.0977,90.8934
834.0620,90.6131
835.0262,90.2913
835.9904,89.9315
836.9547,89.5411
837.9189,89.1317
838.8831,88.7161
839.8474,88.3059
840.8116,87.9081
841.7758,87.5245
842.7401,87.154
843.7043,86.7956
844.6685,86.4517
845.6328,86.1301
846.5970,85.8428
847.5612,85.6033
848.5255,85.4221
849.4897,85.3029
850.4539,85.2411
851.4182,85.2244
852.3824,85.2369
853.3466,85.2632
854.3109,85.2922
855.2751,85.3191
856.2393,85.3448
857.2036,85.3739
858.1678,85.4129
859.1320,85.4683
860.0963,85.5443
861.0605,85.643
862.0247,85.7643
862.9890,85.9074
863.9532,86.0733
864.9174,86.2648
865.8817,86.4866
866.8459,86.7416
867.8101,87.0294
868.7744,87.3453
869.7386,87.682
870.7028,88.032
871.6671,88.3878
872.6313,88.7411
873.5955,89.0801
874.5598,89.3898
875.5240,89.6559
876.4882,89.8704
877.4525,90.0361
878.4167,90.1662
879.3809,90.2782
880.3452,90.3866
881.3094,90.4971
882.2736,90.6066
883.2379,90.7063
884.2021,90.7878
885.1663,90.8465
886.1306,90.882
887.0948,90.8971
888.0590,90.8952
889.0233,90.879
889.9875,90.8504
890.9517,90.8102
891.9160,90.7592
892.8802,90.6984
893.8444,90.6283
894.8087,90.5483
895.7729,90.4556
896.7371,90.3446
897.7014,90.2085
898.6656,90.0424
899.6298,89.8465
900.5941,89.6271
901.5583,89.3957
902.5225,89.1649
903.4868,88.9448
904.4510,88.7406
905.4152,88.5517
906.3795,88.3739
907.3437,88.2014
908.3079,88.0294
909.2722,87.8561
910.2364,87.6835
911.2006,87.5174
912.1649,87.3661
913.1291,87.2377
914.0933,87.139
915.0576,87.0734
916.0218,87.0405
916.9860,87.0374
917.9503,87.0601
918.9145,87.1054
919.8787,87.1736
920.8430,87.2689
921.8072,87.399
922.7714,87.572
923.7357,87.7934
924.6999,88.0637
925.6641,88.3794
926.6284,88.7355
927.5926,89.13
928.5568,89.5667
929.5211,90.0549
930.4853,90.6079
931.4495,91.2384
932.4138,91.9547
933.3780,92.7567
934.3422,93.6335
935.3065,94.5625
936.2707,95.5109
937.2349,96.4397
938.1992,97.3096
939.1634,98.0877
940.1276,98.7527
941.0919,99.2969
942.0561,99.7244
943.0203,100.046
943.9846,100.274
944.9488,100.443
945.9130,100.597
946.8773,100.677
947.8415,100.687
948.8057,100.638
949.7700,100.545
950.7342,100.421
951.6984,100.28
952.6627,100.126
953.6269,99.9592
954.5911,99.7691
955.5554,99.544
956.5196,99.2723
957.4838,98.9463
958.4481,98.5642
959.4123,98.1288
960.3765,97.6462
961.3408,97.1232
962.3050,96.5662
963.2692,95.9818
964.2335,95.3777
965.1977,94.763
966.1619,94.1478
967.1262,93.5415
968.0904,92.9515
969.0546,92.3827
970.0189,91.8393
970.9831,91.3258
971.9473,90.848
972.9116,90.4114
973.8758,90.0188
974.8400,89.6684
975.8043,89.3523
976.7685,89.0571
977.7327,88.7663
978.6970,88.4626
979.6612,88.1313
980.6254,87.7615
981.5897,87.3472
982.5539,86.8869
983.5181,86.3825
984.4824,85.8391
985.4466,85.2661
986.4108,84.6775
987.3751,84.0932
988.3393,83.537
989.3035,83.0339
990.2678,82.6052
991.2320,82.2653
992.1962,82.0188
993.1605,81.8611
994.1247,81.7806
995.0889,81.7608
996.0532,81.7837
997.0174,81.8311
997.9816,81.8859
998.9459,81.9327
999.9101,81.9574
1000.8743,81.9468
1001.8386,81.8869
1002.8028,81.7605
1003.7670,81.5465
1004.7313,81.2217
1005.6955,80.7655
1006.6597,80.166
1007.6240,79.4232
1008.5882,78.548
1009.5524,77.5557
1010.5167,76.4597
1011.4809,75.2681
1012.4451,73.9849
1013.4094,72.6156
1014.3736,71.1708
1015.3378,69.6682
1016.3021,68.1302
1017.2663,66.5813
1018.2305,65.0438
1019.1948,63.5353
1020.1590,62.0655
1021.1232,60.6344
1022.0875,59.2355
1023.0517,57.8634
1024.0160,56.5236
1024.9802,55.2394
1025.9445,54.0478
1026.9087,52.9873
1027.8729,52.0826
1028.8372,51.3363
1029.8014,50.7316
1030.7656,50.2453
1031.7299,49.8613
1032.6941,49.5774
1033.6583,49.4031
1034.6226,49.351
1035.5868,49.4281
1036.5510,49.6306
1037.5153,49.9438
1038.4795,50.3446
1039.4437,50.8072
1040.4080,51.3079
1041.3722,51.8312
1042.3364,52.3726
1043.3007,52.9377
1044.2649,53.5376
1045.2291,54.1811
1046.1934,54.8697
1047.1576,55.5976
1048.1218,56.3562
1049.0861,57.1405
1050.0503,57.9509
1051.0145,58.7905
1051.9788,59.6589
1052.9430,60.5487
1053.9072,61.4485
1054.8715,62.3518
1055.8357,63.2649
1056.7999,64.2057
1057.7642,65.1894
1058.7284,66.2092
1059.6926,67.2253
1060.6569,68.1716
1061.6211,68.9842
1062.5853,69.6339
1063.5496,70.1447
1064.5138,70.5838
1065.4780,71.0273
1066.4423,71.5192
1067.4065,72.0502
1068.3707,72.5647
1069.3350,72.9927
1070.2992,73.2843
1071.2634,73.4282
1072.2277,73.4473
1073.1919,73.3792
1074.1561,73.2562
1075.1204,73.0959
1076.0846,72.9042
1077.0488,72.6836
1078.0131,72.4397
1078.9773,72.1816
1079.9415,71.9186
1080.9058,71.6563
1081.8700,71.3961
1082.8342,71.1367
1083.7985,70.8783
1084.7627,70.6252
1085.7269,70.3876
1086.6912,70.18
1087.6554,70.0164
1088.6196,69.9044
1089.5839,69.8403
1090.5481,69.8079
1091.5123,69.7827
1092.4766,69.7404
1093.4408,69.664
1094.4050,69.5473
1095.3693,69.3938
1096.3335,69.2112
1097.2977,69.0068
1098.2620,68.7848
1099.2262,68.5471
1100.1904,68.2946
1101.1547,68.0292
1102.1189,67.7541
1103.0831,67.4737
1104.0474,67.1946
1105.0116,66.9262
1105.9758,66.6827
1106.9401,66.4829
1107.9043,66.3494
1108.8685,66.3056
1109.8328,66.3732
1110.7970,66.5708
1111.7612,66.9124
1112.7255,67.408
1113.6897,68.063
1114.6539,68.8781
1115.6182,69.8487
1116.5824,70.9656
1117.5466,72.2157
1118.5109,73.5842
1119.4751,75.0553
1120.4393,76.6129
1121.4036,78.2388
1122.3678,79.9122
1123.3320,81.6089
1124.2963,83.3038
1125.2605,84.9733
1126.2247,86.5984
1127.1890,88.1652
1128.1532,89.6633
1129.1174,91.0835
1130.0817,92.415
1131.0459,93.646
1132.0101,94.7653
1132.9744,95.7643
1133.9386,96.6381
1134.9028,97.3851
1135.8671,98.0062
1136.8313,98.5041
1137.7955,98.8841
1138.7598,99.1547
1139.7240,99.327
1140.6882,99.4132
1141.6525,99.4242
1142.6167,99.3692
1143.5809,99.2565
1144.5452,99.0965
1145.5094,98.9036
1146.4736,98.6959
1147.4379,98.4924
1148.4021,98.2957
1149.3663,98.0675
1150.3306,97.8761
1151.2948,97.724
1152.2590,97.6125
1153.2233,97.5411
1154.1875,97.5072
1155.1517,97.5037
1156.1160,97.5193
1157.0802,97.5392
1158.0444,97.5471
1159.0087,97.5266
1159.9729,97.4628
1160.9371,97.3433
1161.9014,97.16
1162.8656,96.9106
1163.8298,96.6
1164.7941,96.2384
1165.7583,95.8392
1166.7225,95.4144
1167.6868,94.9715
1168.6510,94.5131
1169.6152,94.0375
1170.5795,93.5415
1171.5437,93.0221
1172.5079,92.4778
1173.4722,91.9087
1174.4364,91.316
1175.4006,90.7022
1176.3649,90.0708
1177.3291,89.4268
1178.2933,88.7758
1179.2576,88.1232
1180.2218,87.4725
1181.1860,86.8259
1182.1503,86.1847
1183.1145,85.5513
1184.0787,84.9309
1185.0430,84.3309
1186.0072,83.7586
1186.9714,83.219
1187.9357,82.7125
1188.8999,82.2355
1189.8641,81.7819
1190.8284,81.3453
1191.7926,80.9209
1192.7568,80.506
1193.7211,80.0998
1194.6853,79.7027
1195.6495,79.3154
1196.6138,78.9377
1197.5780,78.5679
1198.5422,78.2027
1199.5065,77.8953
1200.4707,77.5232
1201.4349,77.1505
1202.3992,76.7813
1203.3634,76.4214
1204.3276,76.0769
1205.2919,75.7533
1206.2561,75.4547
1207.2203,75.1842
1208.1846,74.9443
1209.1488,74.7369
1210.1130,74.5639
1211.0773,74.4265
1212.0415,74.326
1213.0057,74.2633
1213.9700,74.2394
1214.9342,74.2554
1215.8984,74.3116
1216.8627,74.4074
1217.8269,74.5401
1218.7911,74.7045
1219.7554,74.8937
1220.7196,75.1005
1221.6838,75.3191
1222.6481,75.5451
1223.6123,75.775
1224.5765,76.0042
1225.5408,76.2267
1226.5050,76.4347
1227.4692,76.6194
1228.4335,76.773
1229.3977,76.8899
1230.3619,76.9704
1231.3262,77.0227
1232.2904,77.0641
1233.2546,77.1172
1234.2189,77.2032
1235.1831,77.3339
1236.1473,77.5081
1237.1116,77.7148
1238.0758,77.9421
1239.0400,78.1865
1240.0043,78.4544
1240.9685,78.7558
1241.9327,79.092
1242.8970,79.4476
1243.8612,79.7934
1244.8254,80.097
1245.7897,80.3382
1246.7539,80.5157
1247.7181,80.6439
1248.6824,80.7432
1249.6466,80.8292
1250.6108,80.9077
1251.5751,80.9767
1252.5393,81.0299
1253.5035,81.061
1254.4678,81.0644
1255.4320,81.0362
1256.3962,80.9744
1257.3605,80.881
1258.3247,80.7622
1259.2889,80.6278
1260.2532,80.4872
1261.2174,80.3456
1262.1816,80.2031
1263.1459,80.0563
1264.1101,79.9023
1265.0743,79.7419
1266.0386,79.5803
1267.0028,79.4263
1267.9670,79.2908
1268.9313,79.185
1269.8955,79.1193
1270.8597,79.1018
1271.8240,79.1363
1272.7882,79.2216
1273.7524,79.3516
1274.7167,79.5179
1275.6809,79.7124
1276.6451,79.9291
1277.6094,80.165
1278.5736,80.4186
1279.5378,80.6885
1280.5021,80.9719
1281.4663,81.2636
1282.4305,81.5569
1283.3948,81.8453
1284.3590,82.1237
1285.3232,82.3904
1286.2875,82.6466
1287.2517,82.895
1288.2159,83.1379
1289.1802,83.375
1290.1444,83.6036
1291.1086,83.8196
1292.0729,84.0197
1293.0371,84.2031
1294.0013,84.3713
1294.9656,84.5273
1295.9298,84.6735
1296.8940,84.8108
1297.8583,84.9381
1298.8225,85.0533
1299.7867,85.1542
1300.7510,85.2391
1301.7152,85.3058
1302.6794,85.3526
1303.6437,85.3785
1304.6079,85.3825
1305.5721,85.365
1306.5364,85.3271
1307.5006,85.2701
1308.4648,85.1956
1309.4291,85.1052
1310.3933,85.0011
1311.3575,84.8869
1312.3218,84.767
1313.2860,84.6447
1314.2502,84.5213
1315.2145,84.3967
1316.1787,84.2717
1317.1429,84.1503
1318.1072,84.0393
1319.0714,83.9446
1320.0356,83.8667
1320.9999,83.7998
1321.9641,83.7356
1322.9283,83.6692
1323.8926,83.6021
1324.8568,83.5413
1325.8210,83.4961
1326.7853,83.4748
1327.7495,83.483
1328.7137,83.525
1329.6780,83.6041
1330.6422,83.7218
1331.6064,83.8732
1332.5707,84.0456
1333.5349,84.2201
1334.4991,84.3797
1335.4634,84.519
1336.4276,84.6511
1337.3918,84.8088
1338.3561,85.0321
1339.3203,85.3374
1340.2845,85.6948
1341.2488,86.0451
1342.2130,86.3401
1343.1772,86.5642
1344.1415,86.7255
1345.1057,86.8405
1346.0699,86.9246
1347.0342,86.9899
1347.9984,87.0432
1348.9626,87.0865
1349.9269,87.1164
1350.8911,87.1276
1351.8553,87.1174
1352.8196,87.0888
1353.7838,87.0499
1354.7480,87.0092
1355.7123,86.9695
1356.6765,86.9259
1357.6407,86.8696
1358.6050,86.7936
1359.5692,86.6983
1360.5334,86.5965
1361.4977,86.5139
1362.4619,86.4717
1363.4261,86.4634
1364.3904,86.4583
1365.3546,86.4319
1366.3188,86.3802
1367.2831,86.3121
1368.2473,86.2373
1369.2115,86.1595
1370.1758,86.0768
1371.1400,85.9862
1372.1042,85.8918
1373.0685,85.8092
1374.0327,85.7609
1374.9969,85.758
1375.9612,85.7874
1376.9254,85.8262
1377.8896,85.8625
1378.8539,85.8991
1379.8181,85.9439
1380.7823,85.9992
1381.7466,86.061
1382.7108,86.125
1383.6750,86.1937
1384.6393,86.276
1385.6035,86.3819
1386.5677,86.508
1387.5320,86.6205
1388.4962,86.663
1389.4604,86.5986
1390.4247,86.4356
1391.3889,86.2114
1392.3531,85.9697
1393.3174,85.7557
1394.2816,85.6154
1395.2458,85.5764
1396.2101,85.6209
1397.1743,85.688
1398.1385,85.7115
1399.1028,85.655
1400.0670,85.5182
1401.0313,85.3219
1401.9955,85.0927
1402.9597,84.8526
1403.9240,84.6184
1404.8882,84.4013
1405.8524,84.2045
1406.8167,84.0211
1407.7809,83.8412
1408.7451,83.6598
1409.7094,83.4756
1410.6736,83.2864
1411.6378,83.0878
1412.6021,82.8773
1413.5663,82.6584
1414.5305,82.4374
1415.4948,82.2137
1416.4590,81.9774
1417.4232,81.7242
1418.3875,81.4679
1419.3517,81.2154
1420.3159,80.9466
1421.2802,80.65
1422.2444,80.3494
1423.2086,80.0845
1424.1729,79.8826
1425.1371,79.7499
1426.1013,79.6798
1427.0656,79.6681
1428.0298,79.7218
1428.9940,79.8525
1429.9583,80.0574
1430.9225,80.3112
1431.8867,80.5857
1432.8510,80.874
1433.8152,81.1898
1434.7794,81.5444
1435.7437,81.9212
1436.7079,82.2505
1437.6721,82.4273
1438.6364,82.3952
1439.6006,82.1897
1440.5648,81.8857
1441.5291,81.5356
1442.4933,81.155
1443.4575,80.7369
1444.4218,80.2721
1445.3860,79.7601
1446.3502,79.2129
1447.3145,78.6548
1448.2787,78.1144
1449.2429,77.6137
1450.2072,77.1644
1451.1714,76.7773
1452.1356,76.4652
1453.0999,76.2285
1454.0641,76.0374
1455.0283,75.8429
1455.9926,75.6597
1456.9568,75.6293
1457.9210,75.7846
1458.8853,75.909
1459.8495,75.8879
1460.8137,75.8063
1461.7780,75.7908
1462.7422,75.9415
1463.7064,76.3335
1464.6707,76.9838
1465.6349,77.7913
1466.5991,78.5912
1467.5634,79.3039
1468.5276,79.9706
1469.4918,80.6789
1470.4561,81.5084
1471.4203,82.5233
1472.3845,83.7474
1473.3488,85.0684
1474.3130,86.2409
1475.2772,87.1036
1476.2415,87.6789
1477.2057,88.0631
1478.1699,88.3326
1479.1342,88.5311
1480.0984,88.6837
1481.0626,88.806
1482.0269,88.9019
1482.9911,88.9643
1483.9553,88.9813
1484.9196,88.9409
1485.8838,88.8302
1486.8480,88.6432
1487.8123,88.4159
1488.7765,88.2454
1489.7407,88.1957
1490.7050,88.1977
1491.6692,88.1482
1492.6334,88.0223
1493.5977,87.8414
1494.5619,87.6149
1495.5261,87.3342
1496.4904,87.013
1497.4546,86.7049
1498.4188,86.4413
1499.3831,86.1947
1500.3473,85.9496
1501.3115,85.7436
1502.2758,85.6207
1503.2400,85.5669
1504.2042,85.454
1505.1685,85.0217
1506.1327,84.0522
1507.0969,82.8124
1508.0612,81.868
1509.0254,81.2457
1509.9896,80.702
1510.9539,80.1553
1511.9181,79.6298
1512.8823,79.1776
1513.8466,78.872
1514.8108,78.8037
1515.7750,79.0415
1516.7393,79.5884
1517.7035,80.4053
1518.6677,81.4945
1519.6320,82.9277
1520.5962,84.7321
1521.5604,86.73
1522.5247,88.596
1523.4889,90.1339
1524.4531,91.4065
1525.4174,92.5855
1526.3816,93.7508
1527.3458,94.8389
1528.3101,95.747
1529.2743,96.4432
1530.2385,96.9805
1531.2028,97.4486
1532.1670,97.9215
1533.1312,98.4118
1534.0955,98.8606
1535.0597,99.2126
1536.0239,99.4814
1536.9882,99.6984
1537.9524,99.8169
1538.9166,99.7038
1539.8809,99.3468
1540.8451,99.1014
1541.8093,99.251
1542.7736,99.5749
1543.7378,99.8359
1544.7020,99.9928
1545.6663,100.062
1546.6305,100.057
1547.5947,99.9972
1548.5590,99.9077
1549.5232,99.8097
1550.4874,99.7053
1551.4517,99.5844
1552.4159,99.4481
1553.3801,99.3254
1554.3444,99.2596
1555.3086,99.2654
1556.2728,99.3308
1557.2371,99.3596
1558.2013,99.4339
1559.1655,99.6046
1560.1298,99.5553
1561.0940,99.137
1562.0582,98.5525
1563.0225,98.0163
1563.9867,97.6217
1564.9509,97.3657
1565.9152,97.1901
1566.8794,97.016
1567.8436,96.7807
1568.8079,96.4725
1569.7721,96.127
1570.7363,95.7875
1571.7006,95.4818
1572.6648,95.211
1573.6290,94.9301
1574.5933,94.5568
1575.5575,94.0482
1576.5217,93.4758
1577.4860,92.9415
1578.4502,92.4583
1579.4144,91.9954
1580.3787,91.5369
1581.3429,91.0739
1582.3071,90.5972
1583.2714,90.1074
1584.2356,89.617
1585.1998,89.1388
1586.1641,88.678
1587.1283,88.235
1588.0925,87.8129
1589.0568,87.4174
1590.0210,87.0521
1590.9852,86.7137
1591.9495,86.3963
1592.9137,86.098
1593.8779,85.824
1594.8422,85.5806
1595.8064,85.3661
1596.7706,85.169
1597.7349,84.9746
1598.6991,84.7755
1599.6633,84.5758
1600.6276,84.3896
1601.5918,84.2339
1602.5560,84.1178
1603.5203,84.0368
1604.4845,83.9764
1605.4487,83.924
1606.4130,83.881
1607.3772,83.8658
1608.3414,83.9036
1609.3057,84.0051
1610.2699,84.155
1611.2341,84.3312
1612.1984,84.5328
1613.1626,84.7851
1614.1268,85.1338
1615.0911,85.6367
1616.0553,86.3141
1617.0195,87.0502
1617.9838,87.6442
1618.9480,88.0221
1619.9122,88.2773
1620.8765,88.5411
1621.8407,88.8899
1622.8049,89.3223
1623.7692,89.7735
1624.7334,90.1652
1625.6976,90.4676
1626.6619,90.7065
1627.6261,90.9152
1628.5903,91.1004
1629.5546,91.2547
1630.5188,91.3882
1631.4830,91.5272
1632.4473,91.6772
1633.4115,91.7925
1634.3757,91.8121
1635.3400,91.7642
1636.3042,91.7532
1637.2684,91.7721
1638.2327,91.7373
1639.1969,91.6442
1640.1611,91.5475
1641.1254,91.4946
1642.0896,91.4994
1643.0538,91.531
1644.0181,91.5089
1644.9823,91.3412
1645.9465,91.0347
1646.9108,90.7426
1647.8750,90.6076
1648.8392,90.6578
1649.8035,90.8663
1650.7677,91.1573
1651.7319,91.3827
1652.6962,91.4309
1653.6604,91.3427
1654.6246,91.1042
1655.5889,90.6818
1656.5531,90.2076
1657.5173,89.8312
1658.4816,89.6041
1659.4458,89.4885
1660.4100,89.4083
1661.3743,89.3091
1662.3385,89.187
1663.3027,89.0603
1664.2670,88.939
1665.2312,88.828
1666.1954,88.7211
1667.1597,88.5893
1668.1239,88.4023
1669.0881,88.1797
1670.0524,87.9936
1671.0166,87.8901
1671.9808,87.8571
1672.9451,87.8644
1673.9093,87.877
1674.8735,87.8422
1675.8378,87.7018
1676.8020,87.4352
1677.7662,87.0921
1678.7305,86.7689
1679.6947,86.5469
1680.6589,86.4414
1681.6232,86.3887
1682.5874,86.2942
1683.5516,86.1275
1684.5159,85.9124
1685.4801,85.616
1686.4443,85.2138
1687.4086,84.7609
1688.3728,84.333
1689.3370,83.9781
1690.3013,83.7109
1691.2655,83.5174
1692.2297,83.3554
1693.1940,83.158
1694.1582,82.8539
1695.1224,82.4112
1696.0867,81.8887
1697.0509,81.4325
1698.0151,81.1701
1698.9794,81.0723
1699.9436,80.9622
1700.9078,80.6896
1701.8721,80.2574
1702.8363,79.7787
1703.8005,79.3745
1704.7648,79.115
1705.7290,79.007
1706.6932,79.0037
1707.6575,79.0359
1708.6217,79.0557
1709.5859,79.0587
1710.5502,79.0665
1711.5144,79.099
1712.4786,79.1603
1713.4429,79.2455
1714.4071,79.3701
1715.3713,79.6156
1716.3356,80.1123
1717.2998,80.8421
1718.2640,81.5309
1719.2283,81.9554
1720.1925,82.1527
1721.1567,82.2823
1722.1210,82.4699
1723.0852,82.7597
1724.0494,83.127
1725.0137,83.5122
1725.9779,83.8612
1726.9421,84.1533
1727.9064,84.4045
1728.8706,84.6515
1729.8348,84.9337
1730.7991,85.2854
1731.7633,85.7404
1732.7275,86.3181
1733.6918,86.9504
1734.6560,87.4589
1735.6202,87.728
1736.5845,87.8264
1737.5487,87.9054
1738.5129,88.072
1739.4772,88.3477
1740.4414,88.6837
1741.4056,89.0046
1742.3699,89.2611
1743.3341,89.4567
1744.2983,89.6289
1745.2626,89.8145
1746.2268,90.036
1747.1910,90.3153
1748.1553,90.6897
1749.1195,91.1871
1750.0837,91.7571
1751.0480,92.2671
1752.0122,92.6146
1752.9764,92.8061
1753.9407,92.9173
1754.9049,93.0222
1755.8691,93.1583
1756.8334,93.3268
1757.7976,93.512
1758.7618,93.7034
1759.7261,93.9048
1760.6903,94.1246
1761.6545,94.3577
1762.6188,94.58
1763.5830,94.7673
1764.5472,94.9182
1765.5115,95.0519
1766.4757,95.1869
1767.4399,95.3239
1768.4042,95.4485
1769.3684,95.5508
1770.3326,95.6531
1771.2969,95.8138
1772.2611,96.071
1773.2253,96.3756
1774.1896,96.6341
1775.1538,96.8097
1776.1180,96.9389
1777.0823,97.0761
1778.0465,97.2509
1779.0107,97.4615
1779.9750,97.6892
1780.9392,97.916
1781.9034,98.1327
1782.8677,98.3352
1783.8319,98.5141
1784.7961,98.6534
1785.7604,98.743
1786.7246,98.7925
1787.6888,98.8286
1788.6531,98.8736
1789.6173,98.9286
1790.5815,98.9807
1791.5458,99.0284
1792.5100,99.0792
1793.4742,99.119
1794.4385,99.1278
1795.4027,99.119
1796.3669,99.1281
1797.3312,99.177
1798.2954,99.261
1799.2596,99.3615
1800.2239,99.462
1801.1881,99.5518
1802.1523,99.6231
1803.1166,99.6718
1804.0808,99.7005
1805.0450,99.7152
1806.0093,99.7201
1806.9735,99.7164
1807.9377,99.7065
1808.9020,99.6996
1809.8662,99.7107
1810.8304,99.7496
1811.7947,99.8111
1812.7589,99.8794
1813.7231,99.9417
1814.6874,99.9928
1815.6516,100.032
1816.6158,100.057
1817.5801,100.067
1818.5443,100.065
1819.5085,100.056
1820.4728,100.051
1821.4370,100.054
1822.4012,100.063
1823.3655,100.07
1824.3297,100.064
1825.2939,100.037
1826.2582,99.9927
1827.2224,99.9433
1828.1866,99.9128
1829.1509,99.9236
1830.1151,99.9752
1831.0793,100.034
1832.0436,100.062
1833.0078,100.05
1833.9720,100.017
1834.9363,99.9846
1835.9005,99.9625
1836.8647,99.9491
1837.8290,99.942
1838.7932,99.9521
1839.7574,99.9914
1840.7217,100.052
1841.6859,100.117
1842.6501,100.158
1843.6144,100.162
1844.5786,100.141
1845.5428,100.108
1846.5071,100.071
1847.4713,100.047
1848.4355,100.051
1849.3998,100.087
1850.3640,100.141
1851.3282,100.19
1852.2925,100.221
1853.2567,100.232
1854.2209,100.229
1855.1852,100.219
1856.1494,100.207
1857.1136,100.194
1858.0779,100.185
1859.0421,100.185
1860.0063,100.192
1860.9706,100.2
1861.9348,100.196
1862.8990,100.171
1863.8633,100.123
1864.8275,100.057
1865.7917,99.9826
1866.7560,99.9217
1867.7202,99.912
1868.6844,99.9788
1869.6487,100.095
1870.6129,100.2
1871.5771,100.259
1872.5414,100.281
1873.5056,100.287
1874.4698,100.294
1875.4341,100.303
1876.3983,100.31
1877.3625,100.313
1878.3268,100.313
1879.2910,100.311
1880.2552,100.307
1881.2195,100.299
1882.1837,100.287
1883.1479,100.27
1884.1122,100.253
1885.0764,100.241
1886.0406,100.236
1887.0049,100.239
1887.9691,100.248
1888.9333,100.259
1889.8976,100.266
1890.8618,100.262
1891.8260,100.246
1892.7903,100.223
1893.7545,100.205
1894.7188,100.201
1895.6830,100.216
1896.6472,100.241
1897.6115,100.268
1898.5757,100.284
1899.5399,100.288
1900.5042,100.283
1901.4684,100.274
1902.4326,100.265
1903.3969,100.255
1904.3611,100.237
1905.3253,100.206
1906.2896,100.165
1907.2538,100.123
1908.2180,100.094
1909.1823,100.091
1910.1465,100.115
1911.1107,100.152
1912.0750,100.187
1913.0392,100.215
1914.0034,100.236
1914.9677,100.252
1915.9319,100.263
1916.8961,100.263
1917.8604,100.243
1918.8246,100.201
1919.7888,100.141
1920.7531,100.081
1921.7173,100.042
1922.6815,100.039
1923.6458,100.071
1924.6100,100.12
1925.5742,100.164
1926.5385,100.191
1927.5027,100.201
1928.4669,100.198
1929.4312,100.19
1930.3954,100.182
1931.3596,100.174
1932.3239,100.168
1933.2881,100.165
1934.2523,100.166
1935.2166,100.167
1936.1808,100.165
1937.1450,100.156
1938.1093,100.137
1939.0735,100.11
1940.0377,100.076
1941.0020,100.041
1941.9662,100.015
1942.9304,100.005
1943.8947,100.013
1944.8589,100.031
1945.8231,100.055
1946.7874,100.082
1947.7516,100.11
1948.7158,100.136
1949.6801,100.153
1950.6443,100.16
1951.6085,100.157
1952.5728,100.149
1953.5370,100.144
1954.5012,100.145
1955.4655,100.152
1956.4297,100.163
1957.3939,100.172
1958.3582,100.18
1959.3224,100.184
1960.2866,100.186
1961.2509,100.183
1962.2151,100.174
1963.1793,100.157
1964.1436,100.134
1965.1078,100.111
1966.0720,100.1
1967.0363,100.107
1968.0005,100.134
1968.9647,100.172
1969.9290,100.208
1970.8932,100.234
1971.8574,100.249
1972.8217,100.255
1973.7859,100.255
1974.7501,100.254
1975.7144,100.254
1976.6786,100.254
1977.6428,100.255
1978.6071,100.254
1979.5713,100.251
1980.5355,100.247
1981.4998,100.243
1982.4640,100.238
1983.4282,100.232
1984.3925,100.226
1985.3567,100.217
1986.3209,100.206
1987.2852,100.193
1988.2494,100.179
1989.2136,100.166
1990.1779,100.16
1991.1421,100.165
1992.1063,100.181
1993.0706,100.205
1994.0348,100.228
1994.9990,100.244
1995.9633,100.252
1996.9275,100.253
1997.8917,100.251
1998.8560,100.248
1999.8202,100.248
2000.7844,100.249
2001.7487,100.25
2002.7129,100.25
2003.6771,100.247
2004.6414,100.241
2005.6056,100.232
2006.5698,100.221
2007.5341,100.212
2008.4983,100.204
2009.4625,100.198
2010.4268,100.194
2011.3910,100.187
2012.3552,100.176
2013.3195,100.159
2014.2837,100.138
2015.2479,100.118
2016.2122,100.106
2017.1764,100.106
2018.1406,100.119
2019.1049,100.138
2020.0691,100.156
2021.0333,100.169
2021.9976,100.175
2022.9618,100.176
2023.9260,100.175
2024.8903,100.173
2025.8545,100.172
2026.8187,100.169
2027.7830,100.164
2028.7472,100.157
2029.7114,100.149
2030.6757,100.139
2031.6399,100.13
2032.6041,100.122
2033.5684,100.116
2034.5326,100.112
2035.4968,100.109
2036.4611,100.105
2037.4253,100.099
2038.3895,100.089
2039.3538,100.078
2040.3180,100.069
2041.2822,100.064
2042.2465,100.067
2043.2107,100.073
2044.1749,100.081
2045.1392,100.087
2046.1034,100.089
2047.0676,100.087
2048.0320,100.083
2048.9961,100.077
2049.9604,100.07
2050.9246,100.062
2051.8889,100.054
2052.8530,100.047
2053.8174,100.041
2054.7815,100.037
2055.7458,100.033
2056.7100,100.03
2057.6743,100.027
2058.6384,100.022
2059.6028,100.013
2060.5669,100
2061.5313,99.9855
2062.4954,99.9714
2063.4597,99.9629
2064.4238,99.964
2065.3882,99.9756
2066.3523,99.9946
2067.3167,100.015
2068.2808,100.031
2069.2451,100.04
2070.2092,100.042
2071.1736,100.04
2072.1377,100.036
2073.1021,100.032
2074.0662,100.028
2075.0305,100.024
2075.9946,100.02
2076.9590,100.016
2077.9231,100.014
2078.8875,100.014
2079.8516,100.015
2080.8159,100.018
2081.7800,100.021
2082.7444,100.023
2083.7085,100.026
2084.6729,100.028
2085.6370,100.03
2086.6013,100.034
2087.5654,100.037
2088.5298,100.041
2089.4939,100.045
2090.4583,100.048
2091.4224,100.05
2092.3867,100.052
2093.3508,100.053
2094.3152,100.055
2095.2793,100.058
2096.2437,100.062
2097.2078,100.065
2098.1721,100.066
2099.1362,100.065
2100.1006,100.059
2101.0647,100.055
2102.0291,100.052
2102.9932,100.052
2103.9575,100.053
2104.9216,100.056
2105.8860,100.058
2106.8501,100.059
2107.8145,100.058
2108.7786,100.056
2109.7429,100.053
2110.7070,100.05
2111.6714,100.046
2112.6355,100.043
2113.5999,100.043
2114.5640,100.045
2115.5283,100.05
2116.4924,100.056
2117.4568,100.061
2118.4209,100.063
2119.3853,100.062
2120.3494,100.058
2121.3137,100.052
2122.2778,100.046
2123.2422,100.04
2124.2063,100.036
2125.1707,100.034
2126.1348,100.035
2127.0991,100.039
2128.0632,100.046
2129.0276,100.055
2129.9917,100.063
2130.9561,100.067
2131.9202,100.065
2132.8845,100.058
2133.8486,100.048
2134.8130,100.04
2135.7771,100.038
2136.7415,100.041
2137.7056,100.05
2138.6699,100.062
2139.6340,100.073
2140.5984,100.082
2141.5625,100.087
2142.5269,100.09
2143.4910,100.093
2144.4553,100.097
2145.4194,100.103
2146.3838,100.11
2147.3479,100.119
2148.3123,100.126
2149.2764,100.13
2150.2407,100.131
2151.2048,100.129
2152.1692,100.126
2153.1333,100.123
2154.0977,100.123
2155.0618,100.126
2156.0261,100.132
2156.9902,100.139
2157.9546,100.146
2158.9187,100.153
2159.8831,100.159
2160.8472,100.165
2161.8115,100.172
2162.7756,100.179
2163.7400,100.185
2164.7041,100.189
2165.6685,100.191
2166.6326,100.192
2167.5969,100.191
2168.5610,100.191
2169.5254,100.193
2170.4895,100.196
2171.4539,100.2
2172.4180,100.205
2173.3823,100.211
2174.3464,100.219
2175.3108,100.226
2176.2749,100.233
2177.2393,100.239
2178.2034,100.243
2179.1677,100.243
2180.1318,100.241
2181.0962,100.236
2182.0603,100.229
2183.0247,100.222
2183.9888,100.216
2184.9531,100.212
2185.9172,100.213
2186.8816,100.217
2187.8457,100.225
2188.8101,100.234
2189.7742,100.243
2190.7385,100.25
2191.7026,100.254
2192.6670,100.257
2193.6311,100.257
2194.5955,100.256
2195.5596,100.254
2196.5239,100.252
2197.4880,100.251
2198.4524,100.249
2199.4165,100.247
2200.3809,100.246
2201.3450,100.245
2202.3093,100.243
2203.2734,100.242
2204.2378,100.24
2205.2019,100.237
2206.1663,100.235
2207.1304,100.233
2208.0947,100.233
2209.0588,100.235
2210.0232,100.236
2210.9873,100.236
2211.9517,100.234
2212.9158,100.231
2213.8801,100.227
2214.8442,100.225
2215.8086,100.223
2216.7727,100.222
2217.7371,100.22
2218.7012,100.216
2219.6655,100.211
2220.6296,100.205
2221.5940,100.202
2222.5581,100.201
2223.5225,100.202
2224.4866,100.203
2225.4509,100.202
2226.4150,100.197
2227.3794,100.189
2228.3435,100.178
2229.3079,100.165
2230.2720,100.153
2231.2363,100.143
2232.2004,100.135
2233.1648,100.131
2234.1289,100.13
2235.0933,100.131
2236.0574,100.131
2237.0217,100.129
2237.9858,100.123
2238.9502,100.113
2239.9143,100.101
2240.8787,100.088
2241.8428,100.076
2242.8071,100.066
2243.7712,100.057
2244.7356,100.048
2245.6997,100.039
2246.6641,100.029
2247.6282,100.02
2248.5925,100.01
2249.5566,99.9986
2250.5210,99.9852
2251.4851,99.9683
2252.4495,99.9485
2253.4136,99.9271
2254.3779,99.9064
2255.3420,99.8879
2256.3064,99.8721
2257.2705,99.8581
2258.2349,99.8447
2259.1990,99.8309
2260.1633,99.8166
2261.1274,99.8022
2262.0918,99.7886
2263.0559,99.7769
2264.0203,99.7679
2264.9844,99.7616
2265.9487,99.7572
2266.9128,99.7525
2267.8772,99.7452
2268.8413,99.7339
2269.8057,99.719
2270.7698,99.703
2271.7341,99.6893
2272.6982,99.6811
2273.6626,99.6795
2274.6267,99.6843
2275.5911,99.694
2276.5552,99.7076
2277.5195,99.7243
2278.4836,99.7434
2279.4480,99.7634
2280.4121,99.7815
2281.3765,99.7939
2282.3406,99.7968
2283.3049,99.7868
2284.2690,99.7626
2285.2334,99.7251
2286.1975,99.6774
2287.1619,99.6244
2288.1260,99.5702
2289.0903,99.517
2290.0544,99.4646
2291.0188,99.4117
2291.9829,99.3584
2292.9473,99.3078
2293.9114,99.2654
2294.8757,99.2362
2295.8398,99.2224
2296.8042,99.2233
2297.7683,99.2367
2298.7327,99.2626
2299.6968,99.3031
2300.6611,99.3609
2301.6252,99.4344
2302.5896,99.5154
2303.5537,99.5899
2304.5181,99.6436
2305.4822,99.669
2306.4465,99.671
2307.4106,99.6675
2308.3750,99.6826
2309.3391,99.7356
2310.3035,99.8312
2311.2676,99.9561
2312.2319,100.085
2313.1960,100.195
2314.1604,100.274
2315.1245,100.329
2316.0889,100.379
2317.0530,100.446
2318.0173,100.539
2318.9814,100.648
2319.9458,100.738
2320.9099,100.758
2321.8743,100.664
2322.8384,100.444
2323.8027,100.134
2324.7668,99.811
2325.7312,99.5644
2326.6953,99.457
2327.6597,99.4999
2328.6238,99.6454
2329.5881,99.8042
2330.5522,99.8836
2331.5166,99.8319
2332.4807,99.6606
2333.4451,99.4296
2334.4092,99.208
2335.3735,99.0378
2336.3376,98.9186
2337.3020,98.8161
2338.2661,98.6869
2339.2305,98.5174
2340.1946,98.3239
2341.1589,98.1844
2342.1230,98.2285
2343.0874,98.5375
2344.0515,98.9952
2345.0159,99.3112
2345.9800,99.2965
2346.9443,99.03
2347.9084,98.7412
2348.8728,98.6257
2349.8369,98.7504
2350.8013,99.0425
2351.7654,99.3362
2352.7297,99.4704
2353.6938,99.3989
2354.6582,99.1998
2355.6223,98.9541
2356.5867,98.6646
2357.5508,98.3179
2358.5151,97.9657
2359.4792,97.7031
2360.4436,97.5828
2361.4077,97.5863
2362.3721,97.6777
2363.3362,97.8521
2364.3005,98.1249
2365.2646,98.4933
2366.2290,98.925
2367.1931,99.3774
2368.1575,99.8187
2369.1216,100.231
2370.0859,100.601
2371.0500,100.921
2372.0144,101.179
2372.9785,101.368
2373.9429,101.475
2374.9070,101.493
2375.8713,101.419
2376.8354,101.26
2377.7998,101.039
2378.7639,100.785
2379.7283,100.534
2380.6924,100.314
2381.6567,100.143
2382.6208,100.026
2383.5852,99.96
2384.5493,99.9323
2385.5137,99.9299
2386.4778,99.9405
2387.4421,99.955
2388.4063,99.9679
2389.3706,99.9769
2390.3347,99.982
2391.2991,99.9849
2392.2632,99.9879
2393.2275,99.9931
2394.1917,100.001
2395.1560,100.012
2396.1201,100.024
2397.0845,100.035
2398.0486,100.044
2399.0129,100.05
2399.9771,100.054
2400.9414,100.056
2401.9055,100.056
2402.8699,100.054
2403.8340,100.052
2404.7983,100.05
2405.7625,100.051
2406.7268,100.055
2407.6909,100.06
2408.6553,100.064
2409.6194,100.065
2410.5837,100.065
2411.5479,100.063
2412.5122,100.062
2413.4763,100.062
2414.4407,100.066
2415.4048,100.071
2416.3691,100.077
2417.3333,100.081
2418.2976,100.084
2419.2617,100.086
2420.2261,100.087
2421.1902,100.087
2422.1545,100.087
2423.1187,100.088
2424.0830,100.09
2425.0471,100.094
2426.0115,100.1
2426.9756,100.105
2427.9399,100.108
2428.9041,100.105
2429.8684,100.099
2430.8325,100.091
2431.7969,100.083
2432.7610,100.078
2433.7253,100.077
2434.6895,100.079
2435.6538,100.084
2436.6179,100.091
2437.5823,100.098
2438.5464,100.105
2439.5107,100.113
2440.4749,100.122
2441.4392,100.131
2442.4033,100.141
2443.3677,100.15
2444.3318,100.157
2445.2961,100.161
2446.2603,100.16
2447.2246,100.154
2448.1887,100.144
2449.1531,100.131
2450.1172,100.118
2451.0815,100.106
2452.0457,100.097
2453.0100,100.09
2453.9741,100.084
2454.9385,100.08
2455.9026,100.075
2456.8669,100.071
2457.8311,100.068
2458.7954,100.067
2459.7595,100.068
2460.7239,100.071
2461.6880,100.075
2462.6523,100.081
2463.6165,100.086
2464.5808,100.091
2465.5449,100.096
2466.5093,100.099
2467.4734,100.102
2468.4377,100.102
2469.4019,100.1
2470.3662,100.095
2471.3303,100.086
2472.2947,100.076
2473.2588,100.067
2474.2231,100.061
2475.1873,100.057
2476.1516,100.056
2477.1157,100.055
2478.0801,100.053
2479.0442,100.048
2480.0085,100.043
2480.9727,100.038
2481.9370,100.034
2482.9011,100.031
2483.8655,100.03
2484.8296,100.03
2485.7939,100.031
2486.7581,100.034
2487.7224,100.039
2488.6865,100.045
2489.6509,100.051
2490.6150,100.056
2491.5793,100.058
2492.5435,100.058
2493.5078,100.056
2494.4719,100.054
2495.4363,100.052
2496.4004,100.05
2497.3647,100.046
2498.3289,100.039
2499.2932,100.03
2500.2573,100.019
2501.2217,100.011
2502.1858,100.009
2503.1501,100.012
2504.1143,100.022
2505.0786,100.035
2506.0427,100.049
2507.0071,100.06
2507.9712,100.067
2508.9355,100.069
2509.8997,100.067
2510.8640,100.061
2511.8281,100.054
2512.7925,100.046
2513.7566,100.04
2514.7209,100.037
2515.6851,100.038
2516.6494,100.041
2517.6135,100.045
2518.5779,100.046
2519.5420,100.042
2520.5063,100.035
2521.4705,100.026
2522.4348,100.018
2523.3989,100.014
2524.3633,100.014
2525.3274,100.017
2526.2917,100.022
2527.2559,100.028
2528.2202,100.036
2529.1843,100.047
2530.1487,100.059
2531.1128,100.072
2532.0771,100.083
2533.0413,100.09
2534.0056,100.093
2534.9697,100.094
2535.9341,100.093
2536.8982,100.093
2537.8625,100.092
2538.8267,100.089
2539.7910,100.084
2540.7551,100.074
2541.7195,100.062
2542.6836,100.047
2543.6479,100.032
2544.6121,100.019
2545.5764,100.009
2546.5405,100.003
2547.5049,99.9983
2548.4690,99.9953
2549.4333,99.9934
2550.3975,99.9938
2551.3618,99.9984
2552.3259,100.009
2553.2903,100.026
2554.2544,100.048
2555.2188,100.074
2556.1829,100.102
2557.1472,100.129
2558.1113,100.154
2559.0757,100.177
2560.0398,100.196
2561.0042,100.209
2561.9683,100.216
2562.9326,100.216
2563.8967,100.21
2564.8611,100.202
2565.8252,100.193
2566.7896,100.184
2567.7537,100.176
2568.7180,100.166
2569.6821,100.151
2570.6465,100.132
2571.6106,100.109
2572.5750,100.083
2573.5391,100.057
2574.5034,100.033
2575.4675,100.013
2576.4319,100
2577.3960,99.9961
2578.3604,100.002
2579.3245,100.019
2580.2888,100.042
2581.2529,100.069
2582.2173,100.096
2583.1814,100.12
2584.1458,100.14
2585.1099,100.157
2586.0742,100.172
2587.0383,100.185
2588.0027,100.195
2588.9668,100.202
2589.9312,100.204
2590.8953,100.2
2591.8596,100.19
2592.8237,100.175
2593.7881,100.155
2594.7522,100.13
2595.7166,100.102
2596.6807,100.071
2597.6450,100.04
2598.6091,100.011
2599.5735,99.9857
2600.5376,99.9659
2601.5020,99.9514
2602.4661,99.9419
2603.4304,99.9372
2604.3945,99.9378
2605.3589,99.9452
2606.3230,99.9604
2607.2874,99.9834
2608.2515,100.012
2609.2158,100.044
2610.1799,100.074
2611.1443,100.101
2612.1084,100.123
2613.0728,100.141
2614.0369,100.153
2615.0012,100.161
2615.9653,100.164
2616.9297,100.16
2617.8938,100.15
2618.8582,100.133
2619.8223,100.111
2620.7866,100.086
2621.7507,100.057
2622.7151,100.027
2623.6792,99.9981
2624.6436,99.9718
2625.6077,99.9515
2626.5720,99.9392
2627.5361,99.9355
2628.5005,99.9397
2629.4646,99.95
2630.4290,99.9642
2631.3931,99.9808
2632.3574,99.9984
2633.3215,100.016
2634.2859,100.034
2635.2500,100.05
2636.2144,100.064
2637.1785,100.076
2638.1428,100.086
2639.1069,100.093
2640.0713,100.096
2641.0354,100.094
2641.9998,100.086
2642.9639,100.071
2643.9282,100.051
2644.8923,100.029
2645.8567,100.008
2646.8208,99.9891
2647.7852,99.9742
2648.7493,99.9625
2649.7136,99.9535
2650.6777,99.9476
2651.6421,99.9461
2652.6062,99.9511
2653.5706,99.9637
2654.5347,99.983
2655.4990,100.006
2656.4631,100.031
2657.4275,100.054
2658.3916,100.074
2659.3560,100.092
2660.3201,100.107
2661.2844,100.118
2662.2485,100.125
2663.2129,100.128
2664.1770,100.128
2665.1414,100.125
2666.1055,100.123
2667.0698,100.123
2668.0339,100.124
2668.9983,100.126
2669.9624,100.128
2670.9268,100.131
2671.8909,100.135
2672.8552,100.141
2673.8193,100.151
2674.7837,100.166
2675.7478,100.183
2676.7122,100.201
2677.6763,100.216
2678.6406,100.227
2679.6047,100.233
2680.5691,100.236
2681.5332,100.24
2682.4976,100.245
2683.4617,100.252
2684.4260,100.259
2685.3901,100.262
2686.3545,100.257
2687.3186,100.245
2688.2830,100.228
2689.2471,100.212
2690.2114,100.2
2691.1755,100.195
2692.1399,100.198
2693.1040,100.206
2694.0684,100.215
2695.0325,100.224
2695.9968,100.231
2696.9609,100.237
2697.9253,100.244
2698.8894,100.253
2699.8538,100.261
2700.8179,100.268
2701.7822,100.27
2702.7463,100.267
2703.7107,100.258
2704.6748,100.245
2705.6392,100.228
2706.6033,100.207
2707.5676,100.183
2708.5317,100.157
2709.4961,100.13
2710.4602,100.104
2711.4246,100.079
2712.3887,100.056
2713.3530,100.035
2714.3171,100.016
2715.2815,100.001
2716.2456,99.9912
2717.2100,99.9871
2718.1741,99.9884
2719.1384,99.9943
2720.1025,100.004
2721.0669,100.017
2722.0310,100.033
2722.9954,100.048
2723.9595,100.06
2724.9238,100.067
2725.8879,100.065
2726.8523,100.057
2727.8164,100.042
2728.7808,100.023
2729.7449,100.001
2730.7092,99.9763
2731.6733,99.9488
2732.6377,99.9193
2733.6018,99.8882
2734.5662,99.8557
2735.5303,99.8216
2736.4946,99.7865
2737.4587,99.7522
2738.4231,99.7225
2739.3872,99.7017
2740.3516,99.6931
2741.3157,99.6978
2742.2800,99.714
2743.2441,99.7387
2744.2085,99.7684
2745.1726,99.7993
2746.1370,99.8275
2747.1011,99.8492
2748.0654,99.861
2749.0295,99.8617
2749.9939,99.8529
2750.9580,99.8384
2751.9224,99.8225
2752.8865,99.8071
2753.8508,99.7911
2754.8149,99.7712
2755.7793,99.7438
2756.7434,99.7078
2757.7078,99.6653
2758.6719,99.6215
2759.6362,99.5822
2760.6003,99.5515
2761.5647,99.5309
2762.5288,99.5189
2763.4932,99.5126
2764.4573,99.5089
2765.4216,99.5062
2766.3857,99.5042
2767.3501,99.5042
2768.3142,99.5069
2769.2786,99.5115
2770.2427,99.5151
2771.2070,99.5133
2772.1711,99.5018
2773.1355,99.4789
2774.0996,99.4462
2775.0640,99.4079
2776.0281,99.3683
2776.9924,99.3295
2777.9565,99.2903
2778.9209,99.2472
2779.8850,99.1974
2780.8494,99.1409
2781.8135,99.0818
2782.7778,99.0267
2783.7419,98.9821
2784.7063,98.9477
2785.6704,98.9214
2786.6348,98.8988
2787.5989,98.8754
2788.5632,98.8487
2789.5273,98.8187
2790.4917,98.7871
2791.4558,98.7559
2792.4202,98.726
2793.3843,98.6966
2794.3486,98.6655
2795.3127,98.6301
2796.2771,98.5878
2797.2412,98.5375
2798.2056,98.4797
2799.1697,98.4162
2800.1340,98.3494
2801.0981,98.2818
2802.0625,98.2153
2803.0266,98.1505
2803.9910,98.0868
2804.9551,98.0228
2805.9194,97.9567
2806.8835,97.887
2807.8479,97.8131
2808.8120,97.7352
2809.7764,97.6543
2810.7405,97.5711
2811.7048,97.486
2812.6689,97.3987
2813.6333,97.3085
2814.5974,97.2145
2815.5618,97.1155
2816.5259,97.01
2817.4902,96.8957
2818.4543,96.7702
2819.4187,96.6315
2820.3828,96.4787
2821.3472,96.312
2822.3113,96.1322
2823.2756,95.9405
2824.2397,95.7374
2825.2041,95.5232
2826.1682,95.298
2827.1326,95.062
2828.0967,94.8155
2829.0610,94.5581
2830.0251,94.2898
2830.9895,94.0107
2831.9536,93.723
2832.9180,93.4302
2833.8821,93.1369
2834.8464,92.8468
2835.8105,92.5612
2836.7749,92.2795
2837.7390,92.0003
2838.7034,91.7231
2839.6675,91.4494
2840.6318,91.181
2841.5959,90.9187
2842.5603,90.6603
2843.5244,90.4017
2844.4888,90.14
2845.4529,89.8776
2846.4172,89.6234
2847.3813,89.3907
2848.3457,89.192
2849.3098,89.0327
2850.2742,88.9089
2851.2383,88.8085
2852.2026,88.7173
2853.1667,88.6245
2854.1311,88.5255
2855.0952,88.4214
2856.0596,88.315
2857.0237,88.2075
2857.9880,88.0969
2858.9521,87.9797
2859.9165,87.8528
2860.8806,87.7159
2861.8450,87.5705
2862.8091,87.419
2863.7734,87.2632
2864.7375,87.1039
2865.7019,86.9418
2866.6660,86.7783
2867.6304,86.6153
2868.5945,86.4552
2869.5588,86.2999
2870.5229,86.1505
2871.4873,86.0071
2872.4514,85.8695
2873.4158,85.7369
2874.3799,85.608
2875.3442,85.4817
2876.3083,85.3568
2877.2727,85.2331
2878.2368,85.1117
2879.2012,84.9953
2880.1653,84.8883
2881.1296,84.7957
2882.0938,84.7226
2883.0581,84.6728
2884.0222,84.6485
2884.9866,84.6488
2885.9507,84.6698
2886.9150,84.7042
2887.8792,84.7428
2888.8435,84.7765
2889.8076,84.8002
2890.7720,84.8147
2891.7361,84.8254
2892.7004,84.8374
2893.6646,84.8492
2894.6289,84.8495
2895.5930,84.8206
2896.5574,84.7488
2897.5215,84.6346
2898.4858,84.4967
2899.4500,84.366
2900.4143,84.2708
2901.3784,84.2237
2902.3428,84.2157
2903.3069,84.2224
2904.2712,84.2168
2905.2354,84.1801
2906.1997,84.1063
2907.1638,83.9992
2908.1282,83.866
2909.0923,83.7131
2910.0566,83.5458
2911.0208,83.3694
2911.9851,83.1904
2912.9492,83.0158
2913.9136,82.8509
2914.8777,82.6975
2915.8420,82.5539
2916.8062,82.4161
2917.7705,82.2799
2918.7346,82.1421
2919.6990,82.0026
2920.6631,81.8637
2921.6274,81.7291
2922.5916,81.6024
2923.5559,81.4848
2924.5200,81.3748
2925.4844,81.2695
2926.4485,81.1665
2927.4128,81.0657
2928.3770,80.9696
2929.3413,80.8824
2930.3054,80.8091
2931.2698,80.7552
2932.2339,80.7262
2933.1982,80.7272
2934.1624,80.762
2935.1267,80.8316
2936.0908,80.9344
2937.0552,81.0667
2938.0193,81.2248
2938.9836,81.4065
2939.9478,81.6114
2940.9121,81.8395
2941.8762,82.0897
2942.8406,82.3586
2943.8047,82.6404
2944.7690,82.9276
2945.7332,83.2134
2946.6975,83.4922
2947.6616,83.7603
2948.6260,84.016
2949.5901,84.2585
2950.5544,84.4873
2951.5186,84.7026
2952.4829,84.9055
2953.4470,85.0981
2954.4114,85.2836
2955.3755,85.4656
2956.3398,85.6473
2957.3040,85.8307
2958.2683,86.0159
2959.2324,86.2009
2960.1968,86.3821
2961.1609,86.5549
2962.1252,86.7157
2963.0894,86.8635
2964.0537,87.0006
2965.0178,87.1315
2965.9822,87.261
2966.9463,87.3923
2967.9106,87.5277
2968.8748,87.6693
2969.8391,87.8212
2970.8032,87.9891
2971.7676,88.1783
2972.7317,88.3905
2973.6960,88.6231
2974.6602,88.8691
2975.6245,89.1206
2976.5886,89.3709
2977.5530,89.6167
2978.5171,89.8575
2979.4814,90.0939
2980.4456,90.3248
2981.4099,90.545
2982.3740,90.7456
2983.3384,90.9171
2984.3025,91.0569
2985.2668,91.1761
2986.2310,91.3003
2987.1953,91.4628
2988.1594,91.6899
2989.1238,91.9869
2990.0879,92.3333
2991.0522,92.6907
2992.0164,93.0195
2992.9807,93.296
2993.9448,93.5194
2994.9092,93.7069
2995.8733,93.8812
2996.8376,94.0582
2997.8018,94.2423
2998.7661,94.4297
2999.7302,94.6151
3000.6946,94.7976
3001.6587,94.9816
3002.6230,95.1738
3003.5872,95.3792
3004.5515,95.5976
3005.5156,95.8234
3006.4800,96.0476
3007.4441,96.2621
3008.4084,96.4631
3009.3726,96.6526
3010.3369,96.8375
3011.3010,97.0254
3012.2654,97.2204
3013.2295,97.4205
3014.1938,97.6185
3015.1580,97.806
3016.1223,97.9768
3017.0864,98.1302
3018.0508,98.2694
3019.0149,98.3997
3019.9792,98.5249
3020.9434,98.6469
3021.9077,98.7653
3022.8718,98.8785
3023.8362,98.9852
3024.8003,99.0838
3025.7646,99.1733
3026.7288,99.2529
3027.6931,99.3234
3028.6572,99.3875
3029.6216,99.4495
3030.5857,99.5136
3031.5500,99.5819
3032.5142,99.653
3033.4785,99.6926
3034.4426,99.7237
3035.4070,99.7472
3036.3711,99.7634
3037.3354,99.774
3038.2996,99.7803
3039.2639,99.7814
3040.2280,99.775
3041.1924,99.7581
3042.1565,99.7289
3043.1208,99.6878
3044.0850,99.6379
3045.0493,99.5839
3046.0134,99.5305
3046.9778,99.4806
3047.9419,99.4345
3048.9063,99.3894
3049.8704,99.3411
3050.8347,99.2859
3051.7988,99.2222
3052.7632,99.1513
3053.7273,99.0769
3054.6917,99.0036
3055.6558,98.9355
3056.6201,98.8746
3057.5842,98.8199
3058.5486,98.7673
3059.5127,98.7105
3060.4771,98.6435
3061.4412,98.5633
3062.4055,98.4725
3063.3696,98.3788
3064.3340,98.2922
3065.2981,98.22
3066.2625,98.1634
3067.2266,98.1171
3068.1909,98.0731
3069.1550,98.0246
3070.1194,97.969
3071.0835,97.9069
3072.0479,97.8399
3073.0120,97.7682
3073.9763,97.6905
3074.9404,97.6059
3075.9048,97.5159
3076.8689,97.4253
3077.8333,97.34
3078.7974,97.2648
3079.7617,97.2008
3080.7258,97.1447
3081.6902,97.0909
3082.6543,97.0338
3083.6187,96.9703
3084.5828,96.9001
3085.5471,96.8251
3086.5112,96.7482
3087.4756,96.6716
3088.4397,96.5956
3089.4041,96.5184
3090.3682,96.4371
3091.3325,96.349
3092.2966,96.2532
3093.2610,96.1509
3094.2251,96.0449
3095.1895,95.9385
3096.1536,95.8348
3097.1179,95.7362
3098.0820,95.6445
3099.0464,95.5602
3100.0105,95.4821
3100.9749,95.4065
3101.9390,95.3283
3102.9033,95.2436
3103.8674,95.1516
3104.8318,95.0551
3105.7959,94.959
3106.7603,94.8671
3107.7244,94.7792
3108.6887,94.6914
3109.6528,94.5986
3110.6172,94.4967
3111.5813,94.3853
3112.5457,94.2669
3113.5098,94.1453
3114.4741,94.0244
3115.4382,93.9075
3116.4026,93.7976
3117.3667,93.6969
3118.3311,93.6062
3119.2952,93.5238
3120.2595,93.4457
3121.2236,93.3669
3122.1880,93.2833
3123.1521,93.1938
3124.1165,93.1004
3125.0806,93.0057
3126.0449,92.911
3127.0090,92.815
3127.9734,92.7147
3128.9375,92.6076
3129.9019,92.494
3130.8660,92.3781
3131.8303,92.2656
3132.7944,92.1615
3133.7588,92.0679
3134.7229,91.9827
3135.6873,91.9014
3136.6514,91.8191
3137.6157,91.732
3138.5798,91.6388
3139.5442,91.5399
3140.5083,91.437
3141.4727,91.3318
3142.4368,91.2252
3143.4011,91.1168
3144.3652,91.006
3145.3296,90.8926
3146.2937,90.7783
3147.2581,90.6666
3148.2222,90.5607
3149.1865,90.461
3150.1506,90.3637
3151.1150,90.2625
3152.0791,90.152
3153.0435,90.031
3154.0076,89.904
3154.9719,89.7783
3155.9360,89.6603
3156.9004,89.5525
3157.8645,89.4525
3158.8289,89.3558
3159.7930,89.2584
3160.7573,89.1579
3161.7214,89.0539
3162.6858,88.9458
3163.6499,88.8331
3164.6143,88.7154
3165.5784,88.5943
3166.5427,88.4731
3167.5068,88.3558
3168.4712,88.2449
3169.4353,88.1991
3170.3997,88.0939
3171.3638,87.9831
3172.3281,87.8631
3173.2922,87.7338
3174.2566,87.5995
3175.2207,87.4666
3176.1851,87.3409
3177.1492,87.2253
3178.1135,87.119
3179.0776,87.0186
3180.0420,86.9197
3181.0061,86.8196
3181.9705,86.7179
3182.9346,86.6158
3183.8989,86.5146
3184.8630,86.4144
3185.8274,86.3137
3186.7915,86.2102
3187.7559,86.1022
3188.7200,85.9901
3189.6843,85.8762
3190.6484,85.7634
3191.6128,85.6536
3192.5769,85.5465
3193.5413,85.4399
3194.5054,85.3311
3195.4697,85.2183
3196.4338,85.1021
3197.3982,84.9847
3198.3623,84.8695
3199.3267,84.7592
3200.2908,84.6554
3201.2551,84.5578
3202.2192,84.4643
3203.1836,84.3712
3204.1477,84.2747
3205.1121,84.172
3206.0762,84.0637
3207.0405,83.9529
3208.0046,83.8438
3208.9690,83.7385
3209.9331,83.6358
3210.8975,83.5322
3211.8616,83.4245
3212.8259,83.313
3213.7900,83.2017
3214.7544,83.0958
3215.7185,82.9976
3216.6829,82.9051
3217.6470,82.8136
3218.6113,82.7187
3219.5754,82.6198
3220.5398,82.5201
3221.5039,82.4243
3222.4683,82.3354
3223.4324,82.2533
3224.3967,82.175
3225.3608,82.0973
3226.3252,82.0178
3227.2893,81.9356
3228.2537,81.851
3229.2178,81.7648
3230.1821,81.6784
3231.1462,81.5932
3232.1106,81.511
3233.0747,81.4326
3234.0391,81.3575
3235.0032,81.2835
3235.9675,81.2078
3236.9316,81.1278
3237.8960,81.042
3238.8601,80.9504
3239.8245,80.8539
3240.7886,80.7546
3241.7529,80.6554
3242.7170,80.5605
3243.6814,80.4753
3244.6455,80.4041
3245.6099,80.3479
3246.5740,80.3023
3247.5383,80.2589
3248.5024,80.2085
3249.4668,80.1452
3250.4309,80.0687
3251.3953,79.9849
3252.3594,79.9023
3253.3237,79.8285
3254.2878,79.7667
3255.2522,79.7145
3256.2163,79.6668
3257.1807,79.6186
3258.1448,79.5667
3259.1091,79.5098
3260.0732,79.4472
3261.0376,79.3788
3262.0017,79.3043
3262.9661,79.2249
3263.9302,79.1434
3264.8945,79.0634
3265.8586,78.9873
3266.8230,78.9159
3267.7871,78.8475
3268.7515,78.7799
3269.7156,78.7119
3270.6799,78.6446
3271.6440,78.5808
3272.6084,78.5239
3273.5725,78.4758
3274.5369,78.4363
3275.5010,78.403
3276.4653,78.3724
3277.4294,78.3407
3278.3938,78.3052
3279.3579,78.2651
3280.3223,78.2219
3281.2864,78.1787
3282.2507,78.1383
3283.2148,78.1014
3284.1792,78.0651
3285.1433,78.0239
3286.1077,77.9726
3287.0718,77.9091
3288.0361,77.8365
3289.0002,77.7619
3289.9646,77.6941
3290.9287,77.6389
3291.8931,77.598
3292.8572,77.5689
3293.8215,77.547
3294.7856,77.5274
3295.7500,77.5056
3296.7141,77.4782
3297.6785,77.4425
3298.6426,77.3974
3299.6069,77.3444
3300.5710,77.2868
3301.5354,77.2284
3302.4995,77.1718
3303.4639,77.1176
3304.4280,77.0654
3305.3923,77.0157
3306.3564,76.9712
3307.3208,76.9362
3308.2849,76.914
3309.2493,76.9038
3310.2134,76.9005
3311.1777,76.8963
3312.1418,76.8844
3313.1062,76.8623
3314.0703,76.8319
3315.0347,76.7981
3315.9988,76.7655
3316.9631,76.736
3317.9272,76.709
3318.8916,76.6821
3319.8557,76.6539
3320.8201,76.6246
3321.7842,76.5958
3322.7485,76.5696
3323.7126,76.5471
3324.6770,76.528
3325.6411,76.5107
3326.6055,76.4935
3327.5696,76.4755
3328.5339,76.4565
3329.4980,76.4367
3330.4624,76.4167
3331.4265,76.3974
3332.3909,76.3799
3333.3550,76.3649
3334.3193,76.3532
3335.2834,76.3442
3336.2478,76.3361
3337.2119,76.3269
3338.1763,76.3152
3339.1404,76.3015
3340.1047,76.2874
3341.0688,76.2746
3342.0332,76.263
3342.9973,76.2506
3343.9617,76.2344
3344.9258,76.2134
3345.8901,76.1895
3346.8542,76.1682
3347.8186,76.156
3348.7827,76.1569
3349.7471,76.1706
3350.7112,76.1918
3351.6755,76.2125
3352.6396,76.2259
3353.6040,76.2285
3354.5681,76.2217
3355.5325,76.2108
3356.4966,76.2025
3357.4609,76.2025
3358.4250,76.2133
3359.3894,76.2336
3360.3535,76.2581
3361.3179,76.2804
3362.2820,76.2952
3363.2463,76.3008
3364.2104,76.3
3365.1748,76.2991
3366.1389,76.3047
3367.1033,76.321
3368.0674,76.3481
3369.0317,76.3827
3369.9958,76.4202
3370.9602,76.4561
3371.9243,76.4875
3372.8887,76.5126
3373.8528,76.5308
3374.8171,76.5432
3375.7813,76.5532
3376.7456,76.5659
3377.7097,76.5861
3378.6741,76.6158
3379.6382,76.6527
3380.6025,76.6917
3381.5667,76.7281
3382.5310,76.7599
3383.4951,76.7892
3384.4595,76.8197
3385.4236,76.8535
3386.3879,76.8892
3387.3521,76.9236
3388.3164,76.954
3389.2805,76.9805
3390.2449,77.0056
3391.2090,77.0327
3392.1733,77.0638
3393.1375,77.1001
3394.1018,77.1427
3395.0659,77.1936
3396.0303,77.2546
3396.9944,77.3243
3397.9587,77.3968
3398.9229,77.4632
3399.8872,77.5163
3400.8513,77.5551
3401.8157,77.5854
3402.7798,77.6162
3403.7441,77.6549
3404.7083,77.7029
3405.6726,77.757
3406.6367,77.8122
3407.6011,77.8659
3408.5652,77.9191
3409.5295,77.9754
3410.4937,78.0376
3411.4580,78.1058
3412.4221,78.1773
3413.3865,78.2486
3414.3506,78.3171
3415.3149,78.3826
3416.2791,78.4465
3417.2434,78.5112
3418.2075,78.579
3419.1719,78.6516
3420.1360,78.729
3421.1003,78.809
3422.0645,78.8871
3423.0288,78.9587
3423.9929,79.0212
3424.9573,79.0758
3425.9214,79.1269
3426.8857,79.1809
3427.8499,79.2433
3428.8142,79.3165
3429.7783,79.3988
3430.7427,79.4858
3431.7068,79.5731
3432.6711,79.6587
3433.6353,79.7427
3434.5996,79.8264
3435.5637,79.9111
3436.5281,79.9968
3437.4922,80.0833
3438.4565,80.1703
3439.4207,80.2577
3440.3850,80.3453
3441.3491,80.4329
3442.3135,80.5203
3443.2776,80.608
3444.2419,80.6983
3445.2061,80.7937
3446.1704,80.8958
3447.1345,81.0026
3448.0989,81.1086
3449.0630,81.2067
3450.0273,81.293
3450.9915,81.3677
3451.9558,81.4344
3452.9199,81.4986
3453.8843,81.565
3454.8484,81.636
3455.8127,81.7115
3456.7769,81.7897
3457.7412,81.8694
3458.7053,81.9516
3459.6697,82.04
3460.6338,82.1381
3461.5981,82.2471
3462.5623,82.365
3463.5266,82.4879
3464.4907,82.613
3465.4551,82.7395
3466.4192,82.8676
3467.3835,82.9954
3468.3477,83.1174
3469.3120,83.2268
3470.2761,83.3192
3471.2405,83.3963
3472.2046,83.466
3473.1689,83.5374
3474.1331,83.6158
3475.0974,83.6993
3476.0615,83.7808
3477.0259,83.8545
3477.9900,83.9204
3478.9543,83.9856
3479.9185,84.0604
3480.8828,84.1527
3481.8469,84.2633
3482.8113,84.3866
3483.7754,84.5165
3484.7397,84.651
3485.7039,84.7923
3486.6682,84.9428
3487.6323,85.1006
3488.5967,85.2582
3489.5608,85.4052
3490.5251,85.5339
3491.4893,85.6428
3492.4536,85.7371
3493.4177,85.825
3494.3821,85.9138
3495.3462,86.0055
3496.3105,86.0954
3497.2747,86.1755
3498.2390,86.2406
3499.2031,86.294
3500.1675,86.3487
3501.1316,86.4245
3502.0959,86.5388
3503.0601,86.6933
3504.0244,86.87
3504.9885,87.0438
3505.9529,87.1992
3506.9170,87.3362
3507.8813,87.4659
3508.8455,87.6021
3509.8098,87.7531
3510.7739,87.9167
3511.7383,88.0831
3512.7024,88.2423
3513.6667,88.3895
3514.6309,88.5246
3515.5952,88.6491
3516.5593,88.7637
3517.5237,88.8679
3518.4878,88.961
3519.4521,89.0428
3520.4163,89.1147
3521.3806,89.1806
3522.3447,89.2475
3523.3091,89.3236
3524.2732,89.4171
3525.2375,89.535
3526.2017,89.6818
3527.1660,89.8583
3528.1301,90.0577
3529.0945,90.2657
3530.0586,90.4649
3531.0229,90.6441
3531.9871,90.8033
3532.9514,90.9507
3533.9155,91.0974
3534.8799,91.2514
3535.8440,91.4125
3536.8083,91.5716
3537.7725,91.7137
3538.7368,91.8263
3539.7009,91.9063
3540.6653,91.9599
3541.6294,92.0003
3542.5938,92.0464
3543.5579,92.1216
3544.5222,92.2463
3545.4863,92.422
3546.4507,92.6235
3547.4148,92.8166
3548.3792,92.983
3549.3433,93.1274
3550.3076,93.2673
3551.2717,93.4199
3552.2361,93.5919
3553.2002,93.7763
3554.1646,93.9571
3555.1287,94.1219
3556.0930,94.2683
3557.0571,94.3985
3558.0215,94.5132
3558.9856,94.6085
3559.9500,94.6796
3560.9141,94.7257
3561.8784,94.7522
3562.8425,94.7687
3563.8069,94.7881
3564.7710,94.8394
3565.7354,94.977
3566.6995,95.2378
3567.6638,95.5673
3568.6279,95.8509
3569.5923,96.0302
3570.5564,96.1307
3571.5208,96.2054
3572.4849,96.289
3573.4492,96.3893
3574.4133,96.4984
3575.3777,96.6073
3576.3418,96.712
3577.3062,96.8128
3578.2703,96.909
3579.2346,96.996
3580.1987,97.0683
3581.1631,97.1266
3582.1272,97.1794
3583.0916,97.237
3584.0557,97.3028
3585.0200,97.3771
3585.9841,97.4713
3586.9485,97.599
3587.9126,97.7343
3588.8770,97.8187
3589.8411,97.8274
3590.8054,97.7903
3591.7695,97.7521
3592.7339,97.74
3593.6980,97.7594
3594.6624,97.8001
3595.6265,97.8438
3596.5908,97.8784
3597.5549,97.9111
3598.5193,97.9651
3599.4834,98.0617
3600.4478,98.1998
3601.4119,98.3545
3602.3762,98.497
3603.3403,98.6162
3604.3047,98.7187
3605.2688,98.8172
3606.2332,98.9233
3607.1973,99.0436
3608.1616,99.1705
3609.1257,99.2775
3610.0901,99.337
3611.0542,99.3424
3612.0186,99.3125
3612.9829,99.278
3613.9470,99.2646
3614.9114,99.284
3615.8755,99.3345
3616.8398,99.4088
3617.8040,99.5012
3618.7683,99.602
3619.7324,99.6792
3620.6968,99.6865
3621.6609,99.6152
3622.6252,99.5171
3623.5894,99.4668
3624.5537,99.5099
3625.5178,99.6371
3626.4822,99.7986
3627.4463,99.9555
3628.4106,100.103
3629.3748,100.205
3630.3391,100.202
3631.3032,100.109
3632.2676,100.014
3633.2317,99.9891
3634.1960,100.049
3635.1602,100.162
3636.1245,100.279
3637.0886,100.367
3638.0530,100.414
3639.0171,100.428
3639.9814,100.418
3640.9456,100.394
3641.9099,100.362
3642.8740,100.339
3643.8384,100.342
3644.8025,100.352
3645.7668,100.308
3646.7310,100.152
3647.6953,99.9573
3648.6594,99.9626
3649.6238,100.214
3650.5879,100.447
3651.5522,100.507
3652.5164,100.46
3653.4807,100.412
3654.4448,100.41
3655.4092,100.442
3656.3733,100.472
3657.3376,100.47
3658.3018,100.432
3659.2661,100.384
3660.2302,100.353
3661.1946,100.347
3662.1587,100.353
3663.1230,100.355
3664.0872,100.355
3665.0515,100.365
3666.0156,100.381
3666.9800,100.372
3667.9441,100.306
3668.9084,100.2
3669.8726,100.118
3670.8369,100.094
3671.8010,100.113
3672.7654,100.138
3673.7295,100.137
3674.6938,100.112
3675.6580,100.111
3676.6223,100.143
3677.5864,100.165
3678.5508,100.159
3679.5149,100.145
3680.4792,100.136
3681.4434,100.125
3682.4077,100.105
3683.3718,100.086
3684.3362,100.09
3685.3003,100.115
3686.2646,100.118
3687.2288,100.036
3688.1931,99.8683
3689.1572,99.7157
3690.1216,99.6597
3691.0857,99.6757
3692.0500,99.7101
3693.0142,99.7451
3693.9785,99.7832
3694.9426,99.8254
3695.9070,99.8704
3696.8711,99.9191
3697.8354,99.9742
3698.7996,100.035
3699.7639,100.095
3700.7280,100.149
3701.6924,100.188
3702.6565,100.203
3703.6208,100.187
3704.5850,100.152
3705.5493,100.119
3706.5134,100.1
3707.4778,100.083
3708.4419,100.059
3709.4063,100.064
3710.3704,100.191
3711.3347,100.46
3712.2988,100.74
3713.2632,100.884
3714.2273,100.869
3715.1917,100.761
3716.1558,100.621
3717.1201,100.479
3718.0842,100.333
3719.0486,100.177
3720.0127,100.018
3720.9771,99.8731
3721.9412,99.7636
3722.9055,99.7028
3723.8696,99.6929
3724.8340,99.7212
3725.7981,99.7638
3726.7625,99.7991
3727.7266,99.8229
3728.6909,99.8436
3729.6550,99.8624
3730.6194,99.8588
3731.5835,99.798
3732.5479,99.6701
3733.5120,99.5415
3734.4763,99.5318
3735.4404,99.6653
3736.4048,99.8115
3737.3689,99.8624
3738.3333,99.8556
3739.2974,99.9065
3740.2617,100.1
3741.2258,100.428
3742.1902,100.783
3743.1543,101.002
3744.1187,100.974
3745.0828,100.721
3746.0471,100.365
3747.0112,100.038
3747.9756,99.819
3748.9397,99.7362
3749.9041,99.8034
3750.8682,99.988
3751.8325,100.144
3752.7966,100.136
3753.7610,99.9826
3754.7251,99.7923
3755.6895,99.646
3756.6536,99.5701
3757.6179,99.5606
3758.5820,99.601
3759.5464,99.6607
3760.5105,99.726
3761.4749,99.7621
3762.4390,99.7754
3763.4033,99.7796
3764.3674,99.7821
3765.3318,99.7846
3766.2959,99.789
3767.2603,99.8001
3768.2244,99.8247
3769.1887,99.8655
3770.1528,99.9119
3771.1172,99.9415
3772.0813,99.9372
3773.0457,99.9033
3774.0098,99.8595
3774.9741,99.822
3775.9382,99.7918
3776.9026,99.7622
3777.8667,99.7338
3778.8311,99.7131
3779.7952,99.6974
3780.7595,99.6752
3781.7236,99.6438
3782.6880,99.6157
3783.6521,99.6105
3784.6165,99.6422
3785.5806,99.709
3786.5449,99.7927
3787.5090,99.8682
3788.4734,99.9185
3789.4375,99.941
3790.4019,99.9429
3791.3660,99.9288
3792.3303,99.8921
3793.2944,99.8189
3794.2588,99.7034
3795.2229,99.5628
3796.1873,99.4337
3797.1514,99.3478
3798.1157,99.3107
3799.0798,99.3034
3800.0442,99.3069
3801.0083,99.3211
3801.9727,99.3522
3802.9368,99.4036
3803.9011,99.4872
3804.8652,99.6182
3805.8296,99.7881
3806.7937,99.9504
3807.7581,100.041
3808.7222,100.031
3809.6865,99.9588
3810.6506,99.9043
3811.6150,99.9202
3812.5791,99.9909
3813.5435,100.043
3814.5076,99.9995
3815.4719,99.8439
3816.4360,99.6247
3817.4004,99.4112
3818.3645,99.2553
3819.3289,99.1836
3820.2930,99.1947
3821.2573,99.2434
3822.2214,99.2577
3823.1858,99.2053
3824.1499,99.1217
3825.1143,99.069
3826.0784,99.0877
3827.0427,99.179
3828.0068,99.3135
3828.9712,99.451
3829.9353,99.5616
3830.8997,99.6359
3831.8638,99.6821
3832.8281,99.7138
3833.7922,99.7339
3834.7566,99.7274
3835.7207,99.6692
3836.6851,99.551
3837.6492,99.4037
3838.6135,99.2827
3839.5776,99.2243
3840.5420,99.2305
3841.5061,99.2853
3842.4705,99.3632
3843.4346,99.4262
3844.3989,99.4351
3845.3630,99.3749
3846.3274,99.2748
3847.2915,99.2005
3848.2559,99.2211
3849.2200,99.3706
3850.1843,99.6222
3851.1484,99.9015
3852.1128,100.159
3853.0769,100.393
3854.0413,100.507
3855.0054,100.375
3855.9697,100.07
3856.9338,99.768
3857.8982,99.5865
3858.8623,99.5413
3859.8267,99.5731
3860.7908,99.596
3861.7551,99.5554
3862.7192,99.4669
3863.6836,99.3923
3864.6477,99.3743
3865.6121,99.4055
3866.5762,99.4489
3867.5405,99.464
3868.5046,99.4281
3869.4690,99.3544
3870.4331,99.2877
3871.3975,99.2683
3872.3616,99.2997
3873.3259,99.3586
3874.2900,99.4254
3875.2544,99.4946
3876.2185,99.5641
3877.1829,99.6221
3878.1470,99.6481
3879.1113,99.6298
3880.0754,99.5817
3881.0398,99.5407
3882.0039,99.5413
3882.9683,99.5934
3883.9324,99.6771
3884.8967,99.7522
3885.8608,99.7788
3886.8252,99.7413
3887.7893,99.6553
3888.7537,99.5499
3889.7178,99.4498
3890.6821,99.3743
3891.6462,99.3367
3892.6106,99.3323
3893.5747,99.3438
3894.5391,99.3673
3895.5032,99.4115
3896.4675,99.4726
3897.4316,99.5272
3898.3960,99.5511
3899.3601,99.5415
3900.3245,99.5156
3901.2886,99.4933
3902.2529,99.4877
3903.2170,99.5045
3904.1814,99.5347
3905.1455,99.5571
3906.1099,99.5575
3907.0740,99.5404
3908.0383,99.5184
3909.0024,99.4992
3909.9668,99.4827
3910.9309,99.4667
3911.8953,99.4522
3912.8594,99.4422
3913.8237,99.438
3914.7878,99.4373
3915.7522,99.4381
3916.7163,99.4415
3917.6807,99.4452
3918.6448,99.4393
3919.6091,99.4137
3920.5732,99.3697
3921.5376,99.3189
3922.5017,99.2759
3923.4661,99.2508
3924.4302,99.2434
3925.3945,99.2418
3926.3586,99.2312
3927.3230,99.2048
3928.2871,99.1671
3929.2515,99.1299
3930.2156,99.1104
3931.1799,99.1254
3932.1440,99.1768
3933.1084,99.2454
3934.0725,99.3049
3935.0369,99.3394
3936.0010,99.3468
3936.9653,99.3315
3937.9294,99.2985
3938.8938,99.2531
3939.8579,99.2046
3940.8223,99.168
3941.7864,99.1579
3942.7507,99.1783
3943.7148,99.2163
3944.6792,99.251
3945.6433,99.2654
3946.6077,99.2538
3947.5718,99.2231
3948.5361,99.1897
3949.5002,99.1697
3950.4646,99.169
3951.4287,99.1824
3952.3931,99.1999
3953.3572,99.2133
3954.3215,99.2179
3955.2856,99.2122
3956.2500,99.1979
3957.2141,99.1783
3958.1785,99.158
3959.1426,99.1422
3960.1069,99.1363
3961.0710,99.1441
3962.0354,99.1656
3962.9995,99.1963
3963.9639,99.2287
3964.9280,99.2555
3965.8923,99.272
3966.8564,99.2756
3967.8208,99.2663
3968.7849,99.2458
3969.7493,99.2182
3970.7134,99.1894
3971.6777,99.1671
3972.6418,99.1578
3973.6062,99.1647
3974.5703,99.1852
3975.5347,99.2115
3976.4988,99.2336
3977.4631,99.2434
3978.4272,99.238
3979.3916,99.2195
3980.3557,99.1938
3981.3201,99.1677
3982.2842,99.1465
3983.2485,99.1332
3984.2126,99.1283
3985.1770,99.1308
3986.1411,99.1385
3987.1055,99.1481
3988.0696,99.155
3989.0339,99.154
3989.9980,99.1428
3990.9624,99.1246
3991.9265,99.1077
3992.8909,99.1023
3993.8550,99.1139
3994.8193,99.1412
3995.7834,99.1705
3996.7478,99.1855
3997.7119,99.1781
3998.6763,99.152
3999.6404,99.1204
4000.6047,98.9143

##### Extended Information
[Comments]
Sample name
Comment
User
Division
Company,HANKYONG

[Detailed Information]
Creation date,4/24/2024 11:36 AM

Data array type,Linear data array
Horizontal axis,Wavenumber [cm-1]
Vertical axis,%T
Start,649.893 cm-1
End,4000.6 cm-1
Data interval,0.964233 cm-1
Data points,3476    

[Measurement Information]
Model Name,FT/IR-4700typeA
Serial Number,D056761788

Accessory,ATR PRO ONE
Accessory S/N,C174761809
Incident angle,45 deg

Measurement Date,4/24/2024 11:35 AM

Light Source,Standard
Detector,TGS
Accumulation,32
Resolution,4 cm-1
Zero Filling,On
Apodization,Cosine
Gain,Auto (4)
Aperture,Auto (7.1 mm)
Scanning Speed,Auto (2 mm/sec)
Filter,Auto (30000 Hz)

