TITLE,
DATA TYPE,INFRARED SPECTRUM
ORIGIN,JASCO
OWNER,
DATE,24/04/24
TIME,12:08:40
SPECTROMETER/DATA SYSTEM,
LOCALE,1033
RESOLUTION,
DELTAX,0.964233
XUNITS,1/CM
YUNITS,TRANSMITTANCE
FIRSTX,  649.8934
LASTX, 4000.6047
NPOINTS,    3476
FIRSTY,    98.90598
MAXY,   101.95905
MINY,    76.46664
XYDATA
649.8934,98.906
650.8576,98.8702
651.8218,98.8801
652.7861,98.92
653.7503,98.9652
654.7145,99.0035
655.6788,99.0326
656.6430,99.0539
657.6072,99.0735
658.5715,99.1083
659.5357,99.1866
660.4999,99.3297
661.4642,99.5218
662.4284,99.6995
663.3926,99.7692
664.3569,99.6307
665.3211,99.188
666.2853,98.3854
667.2496,97.3411
668.2138,96.5095
669.1780,96.3869
670.1423,96.89
671.1065,97.5521
672.0707,98.0621
673.0350,98.334
673.9992,98.3924
674.9634,98.3062
675.9277,98.1605
676.8919,98.0304
677.8561,97.9565
678.8204,97.9445
679.7846,97.9836
680.7488,98.0604
681.7131,98.1606
682.6773,98.2659
683.6415,98.3582
684.6058,98.4268
685.5700,98.4724
686.5342,98.5017
687.4985,98.5178
688.4627,98.5151
689.4269,98.4809
690.3912,98.4063
691.3554,98.3043
692.3196,98.2261
693.2839,98.2489
694.2481,98.4127
695.2123,98.6752
696.1766,98.9527
697.1408,99.1807
698.1050,99.3317
699.0693,99.4093
700.0335,99.438
700.9977,99.4494
701.9620,99.4688
702.9262,99.5066
703.8904,99.5586
704.8547,99.613
705.8189,99.6578
706.7831,99.6848
707.7474,99.6913
708.7116,99.6804
709.6758,99.6601
710.6401,99.6421
711.6043,99.6365
712.5685,99.6872
713.5328,99.7708
714.4970,99.8205
715.4612,99.9583
716.4255,99.839
717.3897,99.6465
718.3539,99.4309
719.3182,99.2622
720.2824,99.1975
721.2466,99.2495
722.2109,99.3808
723.1751,99.5285
724.1393,99.6391
725.1036,99.6889
726.0678,99.6838
727.0320,99.6465
727.9963,99.6005
728.9605,99.561
729.9247,99.534
730.8890,99.5211
731.8532,99.5235
732.8174,99.5405
733.7817,99.5667
734.7459,99.5915
735.7101,99.6021
736.6744,99.591
737.6386,99.56
738.6028,99.5206
739.5671,99.4881
740.5313,99.4739
741.4955,99.4801
742.4598,99.4993
743.4240,99.5194
744.3882,99.5297
745.3525,99.5259
746.3167,99.5097
747.2809,99.4857
748.2452,99.4582
749.2094,99.4286
750.1736,99.3966
751.1379,99.3619
752.1021,99.3256
753.0663,99.2908
754.0306,99.2609
754.9948,99.2383
755.9590,99.2227
756.9233,99.2103
757.8875,99.1938
758.8517,99.1654
759.8160,99.1206
760.7802,99.0611
761.7444,98.9961
762.7087,98.9384
763.6729,98.898
764.6371,98.8775
765.6014,98.8716
766.5656,98.8712
767.5298,98.8694
768.4941,98.8647
769.4583,98.8601
770.4225,98.8587
771.3868,98.8604
772.3510,98.8608
773.3152,98.8538
774.2795,98.8345
775.2437,98.8019
776.2079,98.7593
777.1722,98.7132
778.1364,98.6718
779.1006,98.6417
780.0649,98.6255
781.0291,98.6202
781.9933,98.6184
782.9576,98.6125
783.9218,98.5992
784.8860,98.5812
785.8503,98.5648
786.8145,98.5541
787.7787,98.5462
788.7430,98.5311
789.7072,98.4975
790.6714,98.4393
791.6357,98.3597
792.5999,98.2694
793.5641,98.1798
794.5284,98.0971
795.4926,98.0192
796.4568,97.9394
797.4211,97.8513
798.3853,97.7537
799.3495,97.6502
800.3138,97.5466
801.2780,97.4462
802.2422,97.3491
803.2065,97.2526
804.1707,97.1549
805.1349,97.0571
806.0992,96.9637
807.0634,96.8796
808.0276,96.808
808.9919,96.7478
809.9561,96.6937
810.9203,96.6379
811.8846,96.5733
812.8488,96.4966
813.8130,96.4091
814.7773,96.3165
815.7415,96.2254
816.7057,96.1409
817.6700,96.0641
818.6342,95.9933
819.5984,95.9259
820.5627,95.8604
821.5269,95.7969
822.4911,95.7355
823.4554,95.675
824.4196,95.6128
825.3839,95.5481
826.3481,95.4842
827.3123,95.4292
828.2766,95.3925
829.2408,95.3795
830.2050,95.3883
831.1693,95.4104
832.1335,95.4354
833.0977,95.4575
834.0620,95.4777
835.0262,95.5023
835.9904,95.5385
836.9547,95.5896
837.9189,95.6549
838.8831,95.7305
839.8474,95.8127
840.8116,95.899
841.7758,95.9876
842.7401,96.0764
843.7043,96.1624
844.6685,96.2423
845.6328,96.3137
846.5970,96.3748
847.5612,96.4248
848.5255,96.4636
849.4897,96.492
850.4539,96.5126
851.4182,96.529
852.3824,96.545
853.3466,96.5623
854.3109,96.5806
855.2751,96.5991
856.2393,96.6188
857.2036,96.6435
858.1678,96.6784
859.1320,96.7272
860.0963,96.7896
861.0605,96.862
862.0247,96.9395
862.9890,97.0191
863.9532,97.0999
864.9174,97.1812
865.8817,97.2609
866.8459,97.3353
867.8101,97.4022
868.7744,97.4634
869.7386,97.5253
870.7028,97.5943
871.6671,97.6709
872.6313,97.7455
873.5955,97.8001
874.5598,97.8165
875.5240,97.7862
876.4882,97.7167
877.4525,97.6292
878.4167,97.5501
879.3809,97.4989
880.3452,97.4819
881.3094,97.4927
882.2736,97.5203
883.2379,97.5558
884.2021,97.5961
885.1663,97.6403
886.1306,97.6843
887.0948,97.7194
888.0590,97.7355
889.0233,97.7284
889.9875,97.7038
890.9517,97.6748
891.9160,97.6539
892.8802,97.6438
893.8444,97.6352
894.8087,97.6118
895.7729,97.5596
896.7371,97.4752
897.7014,97.367
898.6656,97.2494
899.6298,97.135
900.5941,97.0285
901.5583,96.9262
902.5225,96.8198
903.4868,96.703
904.4510,96.5756
905.4152,96.4433
906.3795,96.3154
907.3437,96.2001
908.3079,96.1031
909.2722,96.0275
910.2364,95.977
911.2006,95.9583
912.1649,95.9798
913.1291,96.049
914.0933,96.1683
915.0576,96.3332
916.0218,96.5342
916.9860,96.7607
917.9503,97.0044
918.9145,97.2594
919.8787,97.5208
920.8430,97.7826
921.8072,98.0384
922.7714,98.2834
923.7357,98.5166
924.6999,98.74
925.6641,98.9554
926.6284,99.161
927.5926,99.3499
928.5568,99.5122
929.5211,99.6394
930.4853,99.7275
931.4495,99.8036
932.4138,99.8941
933.3780,99.9618
934.3422,100.015
935.3065,100.063
936.2707,100.111
937.2349,100.159
938.1992,100.203
939.1634,100.238
940.1276,100.259
941.0919,100.266
942.0561,100.267
943.0203,100.269
943.9846,100.278
944.9488,100.293
945.9130,100.304
946.8773,100.304
947.8415,100.287
948.8057,100.252
949.7700,100.206
950.7342,100.155
951.6984,100.102
952.6627,100.045
953.6269,99.9831
954.5911,99.9116
955.5554,99.8293
956.5196,99.7372
957.4838,99.6378
958.4481,99.5346
959.4123,99.4318
960.3765,99.3341
961.3408,99.2459
962.3050,99.1704
963.2692,99.1081
964.2335,99.0567
965.1977,99.0122
966.1619,98.9703
967.1262,98.9291
968.0904,98.889
969.0546,98.8523
970.0189,98.8207
970.9831,98.7937
971.9473,98.7681
972.9116,98.7396
973.8758,98.7055
974.8400,98.6656
975.8043,98.6224
976.7685,98.5786
977.7327,98.5346
978.6970,98.4878
979.6612,98.4333
980.6254,98.3663
981.5897,98.2839
982.5539,98.1857
983.5181,98.0734
984.4824,97.9496
985.4466,97.8168
986.4108,97.6775
987.3751,97.5332
988.3393,97.385
989.3035,97.2323
990.2678,97.0734
991.2320,96.9055
992.1962,96.7243
993.1605,96.5247
994.1247,96.3016
995.0889,96.0506
996.0532,95.7696
997.0174,95.4597
997.9816,95.1242
998.9459,94.7668
999.9101,94.3899
1000.8743,93.994
1001.8386,93.578
1002.8028,93.1407
1003.7670,92.6811
1004.7313,92.1993
1005.6955,91.6963
1006.6597,91.1757
1007.6240,90.6442
1008.5882,90.111
1009.5524,89.5859
1010.5167,89.0769
1011.4809,88.5888
1012.4451,88.1242
1013.4094,87.6846
1014.3736,87.2715
1015.3378,86.8851
1016.3021,86.5252
1017.2663,86.1915
1018.2305,85.8846
1019.1948,85.6041
1020.1590,85.3426
1021.1232,85.0805
1022.0875,84.7886
1023.0517,84.4409
1024.0160,84.0341
1024.9802,83.5995
1025.9445,83.198
1026.9087,82.8953
1027.8729,82.7314
1028.8372,82.7004
1029.8014,82.7554
1030.7656,82.8333
1031.7299,82.8845
1032.6941,82.8927
1033.6583,82.8746
1034.6226,82.8656
1035.5868,82.9008
1036.5510,83.0013
1037.5153,83.1688
1038.4795,83.3871
1039.4437,83.6284
1040.4080,83.8612
1041.3722,84.0602
1042.3364,84.2125
1043.3007,84.3196
1044.2649,84.3927
1045.2291,84.4446
1046.1934,84.4846
1047.1576,84.5181
1048.1218,84.5496
1049.0861,84.5862
1050.0503,84.6351
1051.0145,84.6982
1051.9788,84.7679
1052.9430,84.8303
1053.9072,84.8758
1054.8715,84.9116
1055.8357,84.9651
1056.7999,85.0731
1057.7642,85.2582
1058.7284,85.506
1059.6926,85.7573
1060.6569,85.926
1061.6211,85.9384
1062.5853,85.7734
1063.5496,85.4814
1064.5138,85.1667
1065.4780,84.9395
1066.4423,84.8627
1067.4065,84.9212
1068.3707,85.0325
1069.3350,85.0907
1070.2992,85.0178
1071.2634,84.7949
1072.2277,84.4588
1073.1919,84.0737
1074.1561,83.6974
1075.1204,83.362
1076.0846,83.075
1077.0488,82.832
1078.0131,82.6283
1078.9773,82.4621
1079.9415,82.3311
1080.9058,82.2273
1081.8700,82.1374
1082.8342,82.0471
1083.7985,81.9468
1084.7627,81.8347
1085.7269,81.7172
1086.6912,81.6056
1087.6554,81.5128
1088.6196,81.4486
1089.5839,81.4165
1090.5481,81.4105
1091.5123,81.4161
1092.4766,81.4143
1093.4408,81.3872
1094.4050,81.3231
1095.3693,81.2181
1096.3335,81.0746
1097.2977,80.8972
1098.2620,80.6895
1099.2262,80.4519
1100.1904,80.1821
1101.1547,79.8772
1102.1189,79.5357
1103.0831,79.1604
1104.0474,78.7591
1105.0116,78.3444
1105.9758,77.9315
1106.9401,77.5364
1107.9043,77.1756
1108.8685,76.8669
1109.8328,76.6307
1110.7970,76.4898
1111.7612,76.4666
1112.7255,76.5778
1113.6897,76.83
1114.6539,77.2185
1115.6182,77.7303
1116.5824,78.3494
1117.5466,79.0614
1118.5109,79.8552
1119.4751,80.7223
1120.4393,81.653
1121.4036,82.6358
1122.3678,83.657
1123.3320,84.7034
1124.2963,85.7653
1125.2605,86.8378
1126.2247,87.9199
1127.1890,89.0121
1128.1532,90.1127
1129.1174,91.2147
1130.0817,92.3047
1131.0459,93.3642
1132.0101,94.373
1132.9744,95.312
1133.9386,96.1657
1134.9028,96.9226
1135.8671,97.5739
1136.8313,98.1133
1137.7955,98.538
1138.7598,98.8498
1139.7240,99.0571
1140.6882,99.1736
1141.6525,99.216
1142.6167,99.2009
1143.5809,99.1421
1144.5452,99.0297
1145.5094,98.8074
1146.4736,98.5734
1147.4379,98.3387
1148.4021,98.1146
1149.3663,97.9115
1150.3306,97.7377
1151.2948,97.599
1152.2590,97.4985
1153.2233,97.4365
1154.1875,97.4113
1155.1517,97.4203
1156.1160,97.4613
1157.0802,97.5312
1158.0444,97.6258
1159.0087,97.7371
1159.9729,97.8525
1160.9371,97.957
1161.9014,98.0361
1162.8656,98.0798
1163.8298,98.0845
1164.7941,98.0528
1165.7583,97.9901
1166.7225,97.9018
1167.6868,97.7915
1168.6510,97.661
1169.6152,97.5111
1170.5795,97.3429
1171.5437,97.1577
1172.5079,96.9557
1173.4722,96.7346
1174.4364,96.4894
1175.4006,96.2135
1176.3649,95.902
1177.3291,95.5538
1178.2933,95.1732
1179.2576,94.7682
1180.2218,94.3484
1181.1860,93.9217
1182.1503,93.4941
1183.1145,93.0695
1184.0787,92.6511
1185.0430,92.242
1186.0072,91.8444
1186.9714,91.4586
1187.9357,91.083
1188.8999,90.7142
1189.8641,90.3484
1190.8284,89.9816
1191.7926,89.6104
1192.7568,89.2316
1193.7211,88.8427
1194.6853,88.4429
1195.6495,88.0327
1196.6138,87.6136
1197.5780,87.1863
1198.5422,86.7494
1199.5065,86.3622
1200.4707,85.8919
1201.4349,85.409
1202.3992,84.9205
1203.3634,84.4367
1204.3276,83.9695
1205.2919,83.5291
1206.2561,83.1226
1207.2203,82.7543
1208.1846,82.427
1209.1488,82.1437
1210.1130,81.9082
1211.0773,81.7246
1212.0415,81.5962
1213.0057,81.5249
1213.9700,81.5112
1214.9342,81.5549
1215.8984,81.6549
1216.8627,81.809
1217.8269,82.0127
1218.7911,82.2579
1219.7554,82.5345
1220.7196,82.832
1221.6838,83.1418
1222.6481,83.4576
1223.6123,83.7742
1224.5765,84.0867
1225.5408,84.3905
1226.5050,84.6814
1227.4692,84.9567
1228.4335,85.2144
1229.3977,85.4537
1230.3619,85.6744
1231.3262,85.8792
1232.2904,86.0738
1233.2546,86.2653
1234.2189,86.456
1235.1831,86.639
1236.1473,86.7977
1237.1116,86.914
1238.0758,86.9819
1239.0400,87.0161
1240.0043,87.0506
1240.9685,87.1235
1241.9327,87.2574
1242.8970,87.4466
1243.8612,87.6604
1244.8254,87.8599
1245.7897,88.0186
1246.7539,88.1336
1247.7181,88.2212
1248.6824,88.3038
1249.6466,88.3952
1250.6108,88.4949
1251.5751,88.5921
1252.5393,88.6729
1253.5035,88.7283
1254.4678,88.7555
1255.4320,88.7575
1256.3962,88.7396
1257.3605,88.708
1258.3247,88.6688
1259.2889,88.627
1260.2532,88.5857
1261.2174,88.5458
1262.1816,88.5067
1263.1459,88.4684
1264.1101,88.4321
1265.0743,88.401
1266.0386,88.379
1267.0028,88.3705
1267.9670,88.3804
1268.9313,88.4142
1269.8955,88.4775
1270.8597,88.574
1271.8240,88.7031
1272.7882,88.8598
1273.7524,89.0354
1274.7167,89.2215
1275.6809,89.412
1276.6451,89.6048
1277.6094,89.8002
1278.5736,89.9995
1279.5378,90.2021
1280.5021,90.4048
1281.4663,90.6022
1282.4305,90.7883
1283.3948,90.9581
1284.3590,91.1099
1285.3232,91.2449
1286.2875,91.3668
1287.2517,91.4794
1288.2159,91.585
1289.1802,91.6828
1290.1444,91.769
1291.1086,91.8384
1292.0729,91.8869
1293.0371,91.9134
1294.0013,91.9197
1294.9656,91.9105
1295.9298,91.8908
1296.8940,91.8646
1297.8583,91.8334
1298.8225,91.7963
1299.7867,91.7512
1300.7510,91.6965
1301.7152,91.6313
1302.6794,91.557
1303.6437,91.4773
1304.6079,91.3963
1305.5721,91.3172
1306.5364,91.2405
1307.5006,91.1633
1308.4648,91.081
1309.4291,90.9906
1310.3933,90.8934
1311.3575,90.7954
1312.3218,90.7043
1313.2860,90.6244
1314.2502,90.5538
1315.2145,90.4863
1316.1787,90.4173
1317.1429,90.3489
1318.1072,90.2896
1319.0714,90.2486
1320.0356,90.2289
1320.9999,90.2247
1321.9641,90.2265
1322.9283,90.2288
1323.8926,90.2348
1324.8568,90.2542
1325.8210,90.2988
1326.7853,90.3758
1327.7495,90.4865
1328.7137,90.6278
1329.6780,90.7965
1330.6422,90.9897
1331.6064,91.2017
1332.5707,91.4212
1333.5349,91.6307
1334.4991,91.8136
1335.4634,91.9631
1336.4276,92.0929
1337.3918,92.2419
1338.3561,92.4624
1339.3203,92.7859
1340.2845,93.1906
1341.2488,93.6126
1342.2130,93.9922
1343.1772,94.3031
1344.1415,94.5477
1345.1057,94.7413
1346.0699,94.9003
1347.0342,95.0385
1347.9984,95.1647
1348.9626,95.2814
1349.9269,95.3845
1350.8911,95.4672
1351.8553,95.525
1352.8196,95.5596
1353.7838,95.5783
1354.7480,95.5892
1355.7123,95.5941
1356.6765,95.5857
1357.6407,95.5517
1358.6050,95.4823
1359.5692,95.3762
1360.5334,95.2492
1361.4977,95.1348
1362.4619,95.0642
1363.4261,95.0346
1364.3904,95.0112
1365.3546,94.9615
1366.3188,94.8783
1367.2831,94.7739
1368.2473,94.6663
1369.2115,94.5678
1370.1758,94.4814
1371.1400,94.4057
1372.1042,94.3454
1373.0685,94.3199
1374.0327,94.3562
1374.9969,94.4639
1375.9612,94.621
1376.9254,94.7927
1377.8896,94.9603
1378.8539,95.1252
1379.8181,95.294
1380.7823,95.4648
1381.7466,95.6264
1382.7108,95.7696
1383.6750,95.8987
1384.6393,96.0342
1385.6035,96.2032
1386.5677,96.4167
1387.5320,96.637
1388.4962,96.7838
1389.4604,96.7948
1390.4247,96.6693
1391.3889,96.4536
1392.3531,96.2121
1393.3174,96.0165
1394.2816,95.9371
1395.2458,96.0119
1396.2101,96.2104
1397.1743,96.4427
1398.1385,96.6157
1399.1028,96.6777
1400.0670,96.6251
1401.0313,96.4818
1401.9955,96.2797
1402.9597,96.047
1403.9240,95.8059
1404.8882,95.5726
1405.8524,95.3524
1406.8167,95.1359
1407.7809,94.9072
1408.7451,94.6532
1409.7094,94.3664
1410.6736,94.0442
1411.6378,93.6909
1412.6021,93.3188
1413.5663,92.9425
1414.5305,92.5686
1415.4948,92.1857
1416.4590,91.7692
1417.4232,91.3133
1418.3875,90.8591
1419.3517,90.4584
1420.3159,90.1156
1421.2802,89.8132
1422.2444,89.5594
1423.2086,89.382
1424.1729,89.2987
1425.1371,89.3042
1426.1013,89.3806
1427.0656,89.517
1428.0298,89.7186
1428.9940,89.9948
1429.9583,90.3352
1430.9225,90.7019
1431.8867,91.0553
1432.8510,91.3818
1433.8152,91.6881
1434.7794,91.9763
1435.7437,92.2267
1436.7079,92.3872
1437.6721,92.3855
1438.6364,92.184
1439.6006,91.8152
1440.5648,91.3431
1441.5291,90.8146
1442.4933,90.248
1443.4575,89.6448
1444.4218,89.0036
1445.3860,88.327
1446.3502,87.6275
1447.3145,86.9337
1448.2787,86.2866
1449.2429,85.721
1450.2072,85.2514
1451.1714,84.8798
1452.1356,84.6052
1453.0999,84.4136
1454.0641,84.258
1455.0283,84.0671
1455.9926,83.8395
1456.9568,83.7404
1457.9210,83.8614
1458.8853,84.0032
1459.8495,84.0245
1460.8137,83.9873
1461.7780,84.0061
1462.7422,84.1702
1463.7064,84.5443
1464.6707,85.1449
1465.6349,85.8835
1466.5991,86.6094
1467.5634,87.2444
1468.5276,87.8168
1469.4918,88.3904
1470.4561,89.0132
1471.4203,89.726
1472.3845,90.5742
1473.3488,91.5324
1474.3130,92.4366
1475.2772,93.125
1476.2415,93.5729
1477.2057,93.8391
1478.1699,93.9827
1479.1342,94.0391
1480.0984,94.0264
1481.0626,93.9535
1482.0269,93.8224
1482.9911,93.6315
1483.9553,93.3786
1484.9196,93.0568
1485.8838,92.6472
1486.8480,92.1274
1487.8123,91.5234
1488.7765,90.9613
1489.7407,90.5757
1490.7050,90.3465
1491.6692,90.1556
1492.6334,89.9333
1493.5977,89.6624
1494.5619,89.3267
1495.5261,88.9041
1496.4904,88.413
1497.4546,87.9394
1498.4188,87.5569
1499.3831,87.2532
1500.3473,86.9972
1501.3115,86.8031
1502.2758,86.6987
1503.2400,86.6602
1504.2042,86.5533
1505.1685,86.121
1506.1327,85.1844
1507.0969,84.0966
1508.0612,83.4528
1509.0254,83.1984
1509.9896,83.0241
1510.9539,82.836
1511.9181,82.6619
1512.8823,82.5516
1513.8466,82.5645
1514.8108,82.7683
1515.7750,83.2074
1516.7393,83.8688
1517.7035,84.7039
1518.6677,85.7029
1519.6320,86.9233
1520.5962,88.4027
1521.5604,90.0248
1522.5247,91.5476
1523.4889,92.8154
1524.4531,93.8688
1525.4174,94.8343
1526.3816,95.7669
1527.3458,96.6124
1528.3101,97.2908
1529.2743,97.7811
1530.2385,98.1265
1531.2028,98.3956
1532.1670,98.6499
1533.1312,98.9166
1534.0955,99.1726
1535.0597,99.3835
1536.0239,99.5507
1536.9882,99.6757
1537.9524,99.6815
1538.9166,99.4169
1539.8809,98.8888
1540.8451,98.5284
1541.8093,98.6712
1542.7736,99.0643
1543.7378,99.3999
1544.7020,99.6155
1545.6663,99.7274
1546.6305,99.7525
1547.5947,99.7117
1548.5590,99.6349
1549.5232,99.5482
1550.4874,99.4612
1551.4517,99.3677
1552.4159,99.2647
1553.3801,99.1709
1554.3444,99.1199
1555.3086,99.1242
1556.2728,99.1492
1557.2371,99.177
1558.2013,99.3451
1559.1655,99.6781
1560.1298,99.7627
1561.0940,99.4192
1562.0582,98.8741
1563.0225,98.3638
1563.9867,97.9913
1564.9509,97.756
1565.9152,97.6018
1566.8794,97.4557
1567.8436,97.2675
1568.8079,97.0349
1569.7721,96.7862
1570.7363,96.5422
1571.7006,96.3122
1572.6648,96.0938
1573.6290,95.8522
1574.5933,95.5246
1575.5575,95.0893
1576.5217,94.6227
1577.4860,94.2054
1578.4502,93.8261
1579.4144,93.4491
1580.3787,93.0658
1581.3429,92.6751
1582.3071,92.2709
1583.2714,91.8514
1584.2356,91.4249
1585.1998,91.0011
1586.1641,90.5848
1587.1283,90.1779
1588.0925,89.7843
1589.0568,89.4118
1590.0210,89.0662
1590.9852,88.7489
1591.9495,88.4588
1592.9137,88.1984
1593.8779,87.9756
1594.8422,87.7967
1595.8064,87.6569
1596.7706,87.5389
1597.7349,87.4217
1598.6991,87.292
1599.6633,87.1505
1600.6276,87.0116
1601.5918,86.8959
1602.5560,86.819
1603.5203,86.7826
1604.4845,86.7762
1605.4487,86.789
1606.4130,86.8218
1607.3772,86.8898
1608.3414,87.011
1609.3057,87.1855
1610.2699,87.3886
1611.2341,87.5934
1612.1984,87.7958
1613.1626,88.0136
1614.1268,88.2752
1615.0911,88.6196
1616.0553,89.0735
1617.0195,89.5743
1617.9838,89.9814
1618.9480,90.2345
1619.9122,90.4027
1620.8765,90.5885
1621.8407,90.8517
1622.8049,91.1916
1623.7692,91.5574
1624.7334,91.8858
1625.6976,92.1499
1626.6619,92.3691
1627.6261,92.5705
1628.5903,92.7579
1629.5546,92.9218
1630.5188,93.068
1631.4830,93.2176
1632.4473,93.3717
1633.4115,93.4843
1634.3757,93.5014
1635.3400,93.4666
1636.3042,93.4952
1637.2684,93.571
1638.2327,93.5929
1639.1969,93.5476
1640.1611,93.4883
1641.1254,93.4609
1642.0896,93.4768
1643.0538,93.503
1644.0181,93.4611
1644.9823,93.2723
1645.9465,92.9691
1646.9108,92.7237
1647.8750,92.6656
1648.8392,92.7936
1649.8035,93.0661
1650.7677,93.4081
1651.7319,93.6825
1652.6962,93.7976
1653.6604,93.8054
1654.6246,93.6727
1655.5889,93.3445
1656.5531,92.951
1657.5173,92.647
1658.4816,92.4869
1659.4458,92.4352
1660.4100,92.4207
1661.3743,92.3974
1662.3385,92.3664
1663.3027,92.3387
1664.2670,92.3094
1665.2312,92.2735
1666.1954,92.2249
1667.1597,92.1419
1668.1239,92.0072
1669.0881,91.8544
1670.0524,91.7607
1671.0166,91.7631
1671.9808,91.8372
1672.9451,91.9502
1673.9093,92.0727
1674.8735,92.159
1675.8378,92.1511
1676.8020,92.0205
1677.7662,91.806
1678.7305,91.5993
1679.6947,91.4848
1680.6589,91.4896
1681.6232,91.5743
1682.5874,91.6813
1683.5516,91.8002
1684.5159,91.9067
1685.4801,91.8942
1686.4443,91.7293
1687.4086,91.5074
1688.3728,91.3374
1689.3370,91.2726
1690.3013,91.3111
1691.2655,91.4171
1692.2297,91.5375
1693.1940,91.6093
1694.1582,91.5736
1695.1224,91.4091
1696.0867,91.1767
1697.0509,91.0205
1698.0151,91.0722
1698.9794,91.3066
1699.9436,91.5261
1700.9078,91.5359
1701.8721,91.3079
1702.8363,90.9596
1703.8005,90.6406
1704.7648,90.452
1705.7290,90.4175
1706.6932,90.4881
1707.6575,90.5801
1708.6217,90.6339
1709.5859,90.6433
1710.5502,90.6348
1711.5144,90.6319
1712.4786,90.6356
1713.4429,90.6289
1714.4071,90.6077
1715.3713,90.6405
1716.3356,90.8839
1717.2998,91.3936
1718.2640,91.9439
1719.2283,92.2896
1720.1925,92.424
1721.1567,92.4803
1722.1210,92.5748
1723.0852,92.752
1724.0494,92.9911
1725.0137,93.2375
1725.9779,93.4397
1726.9421,93.5774
1727.9064,93.6678
1728.8706,93.7506
1729.8348,93.8667
1730.7991,94.0449
1731.7633,94.3071
1732.7275,94.67
1733.6918,95.091
1734.6560,95.4283
1735.6202,95.5747
1736.5845,95.577
1737.5487,95.5581
1738.5129,95.6025
1739.4772,95.72
1740.4414,95.8655
1741.4056,95.9813
1742.3699,96.036
1743.3341,96.04
1744.2983,96.0271
1745.2626,96.0282
1746.2268,96.0629
1747.1910,96.1537
1748.1553,96.343
1749.1195,96.6709
1750.0837,97.1017
1751.0480,97.5082
1752.0122,97.7789
1752.9764,97.9036
1753.9407,97.9434
1754.9049,97.9635
1755.8691,98.0004
1756.8334,98.0601
1757.7976,98.1339
1758.7618,98.2138
1759.7261,98.3016
1760.6903,98.4043
1761.6545,98.5214
1762.6188,98.6375
1763.5830,98.7326
1764.5472,98.8003
1765.5115,98.8497
1766.4757,98.8904
1767.4399,98.92
1768.4042,98.926
1769.3684,98.902
1770.3326,98.8702
1771.2969,98.8852
1772.2611,98.9852
1773.2253,99.1312
1774.1896,99.2407
1775.1538,99.2782
1776.1180,99.2721
1777.0823,99.2661
1778.0465,99.2839
1779.0107,99.3272
1779.9750,99.3901
1780.9392,99.4693
1781.9034,99.5632
1782.8677,99.6652
1783.8319,99.7592
1784.7961,99.8238
1785.7604,99.8458
1786.7246,99.8321
1787.6888,99.8052
1788.6531,99.7829
1789.6173,99.7635
1790.5815,99.737
1791.5458,99.7122
1792.5100,99.7085
1793.4742,99.7144
1794.4385,99.7005
1795.4027,99.6683
1796.3669,99.6459
1797.3312,99.6538
1798.2954,99.6914
1799.2596,99.7482
1800.2239,99.8163
1801.1881,99.8889
1802.1523,99.954
1803.1166,99.999
1804.0808,100.018
1805.0450,100.014
1806.0093,99.9893
1806.9735,99.9492
1807.9377,99.9013
1808.9020,99.8611
1809.8662,99.8493
1810.8304,99.8776
1811.7947,99.938
1812.7589,100.009
1813.7231,100.071
1814.6874,100.117
1815.6516,100.146
1816.6158,100.157
1817.5801,100.152
1818.5443,100.133
1819.5085,100.104
1820.4728,100.073
1821.4370,100.047
1822.4012,100.026
1823.3655,100.018
1824.3297,100.015
1825.2939,99.9977
1826.2582,99.9631
1827.2224,99.9222
1828.1866,99.9001
1829.1509,99.9249
1830.1151,100.001
1831.0793,100.094
1832.0436,100.158
1833.0078,100.176
1833.9720,100.165
1834.9363,100.147
1835.9005,100.135
1836.8647,100.131
1837.8290,100.135
1838.7932,100.148
1839.7574,100.174
1840.7217,100.214
1841.6859,100.251
1842.6501,100.266
1843.6144,100.253
1844.5786,100.232
1845.5428,100.213
1846.5071,100.199
1847.4713,100.196
1848.4355,100.217
1849.3998,100.263
1850.3640,100.32
1851.3282,100.368
1852.2925,100.394
1853.2567,100.398
1854.2209,100.389
1855.1852,100.375
1856.1494,100.36
1857.1136,100.346
1858.0779,100.335
1859.0421,100.333
1860.0063,100.339
1860.9706,100.345
1861.9348,100.339
1862.8990,100.307
1863.8633,100.246
1864.8275,100.157
1865.7917,100.053
1866.7560,99.9623
1867.7202,99.9343
1868.6844,100.003
1869.6487,100.141
1870.6129,100.277
1871.5771,100.363
1872.5414,100.401
1873.5056,100.415
1874.4698,100.42
1875.4341,100.423
1876.3983,100.424
1877.3625,100.423
1878.3268,100.422
1879.2910,100.421
1880.2552,100.419
1881.2195,100.415
1882.1837,100.406
1883.1479,100.39
1884.1122,100.37
1885.0764,100.348
1886.0406,100.329
1887.0049,100.315
1887.9691,100.307
1888.9333,100.308
1889.8976,100.314
1890.8618,100.315
1891.8260,100.307
1892.7903,100.291
1893.7545,100.277
1894.7188,100.276
1895.6830,100.295
1896.6472,100.327
1897.6115,100.361
1898.5757,100.386
1899.5399,100.397
1900.5042,100.394
1901.4684,100.385
1902.4326,100.373
1903.3969,100.357
1904.3611,100.333
1905.3253,100.297
1906.2896,100.252
1907.2538,100.207
1908.2180,100.179
1909.1823,100.181
1910.1465,100.211
1911.1107,100.255
1912.0750,100.295
1913.0392,100.321
1914.0034,100.335
1914.9677,100.341
1915.9319,100.341
1916.8961,100.334
1917.8604,100.313
1918.8246,100.274
1919.7888,100.219
1920.7531,100.161
1921.7173,100.123
1922.6815,100.123
1923.6458,100.162
1924.6100,100.222
1925.5742,100.28
1926.5385,100.319
1927.5027,100.336
1928.4669,100.337
1929.4312,100.33
1930.3954,100.32
1931.3596,100.311
1932.3239,100.304
1933.2881,100.301
1934.2523,100.302
1935.2166,100.307
1936.1808,100.309
1937.1450,100.304
1938.1093,100.286
1939.0735,100.254
1940.0377,100.211
1941.0020,100.166
1941.9662,100.132
1942.9304,100.123
1943.8947,100.137
1944.8589,100.167
1945.8231,100.204
1946.7874,100.242
1947.7516,100.279
1948.7158,100.311
1949.6801,100.334
1950.6443,100.345
1951.6085,100.344
1952.5728,100.339
1953.5370,100.334
1954.5012,100.334
1955.4655,100.34
1956.4297,100.349
1957.3939,100.358
1958.3582,100.364
1959.3224,100.368
1960.2866,100.37
1961.2509,100.368
1962.2151,100.359
1963.1793,100.34
1964.1436,100.313
1965.1078,100.286
1966.0720,100.272
1967.0363,100.281
1968.0005,100.313
1968.9647,100.357
1969.9290,100.4
1970.8932,100.43
1971.8574,100.447
1972.8217,100.454
1973.7859,100.456
1974.7501,100.458
1975.7144,100.461
1976.6786,100.463
1977.6428,100.464
1978.6071,100.462
1979.5713,100.46
1980.5355,100.458
1981.4998,100.456
1982.4640,100.453
1983.4282,100.447
1984.3925,100.437
1985.3567,100.422
1986.3209,100.402
1987.2852,100.379
1988.2494,100.355
1989.2136,100.333
1990.1779,100.319
1991.1421,100.319
1992.1063,100.334
1993.0706,100.361
1994.0348,100.392
1994.9990,100.419
1995.9633,100.436
1996.9275,100.445
1997.8917,100.449
1998.8560,100.452
1999.8202,100.456
2000.7844,100.463
2001.7487,100.47
2002.7129,100.473
2003.6771,100.47
2004.6414,100.462
2005.6056,100.449
2006.5698,100.437
2007.5341,100.429
2008.4983,100.426
2009.4625,100.429
2010.4268,100.433
2011.3910,100.434
2012.3552,100.425
2013.3195,100.405
2014.2837,100.377
2015.2479,100.348
2016.2122,100.329
2017.1764,100.327
2018.1406,100.343
2019.1049,100.369
2020.0691,100.394
2021.0333,100.412
2021.9976,100.42
2022.9618,100.421
2023.9260,100.421
2024.8903,100.421
2025.8545,100.424
2026.8187,100.427
2027.7830,100.431
2028.7472,100.432
2029.7114,100.433
2030.6757,100.431
2031.6399,100.429
2032.6041,100.426
2033.5684,100.423
2034.5326,100.42
2035.4968,100.416
2036.4611,100.409
2037.4253,100.398
2038.3895,100.382
2039.3538,100.365
2040.3180,100.352
2041.2822,100.347
2042.2465,100.351
2043.2107,100.362
2044.1749,100.375
2045.1392,100.384
2046.1034,100.388
2047.0676,100.387
2048.0320,100.383
2048.9961,100.378
2049.9604,100.375
2050.9246,100.372
2051.8889,100.371
2052.8530,100.369
2053.8174,100.368
2054.7815,100.366
2055.7458,100.363
2056.7100,100.36
2057.6743,100.356
2058.6384,100.35
2059.6028,100.342
2060.5669,100.331
2061.5313,100.315
2062.4954,100.298
2063.4597,100.285
2064.4238,100.282
2065.3882,100.29
2066.3523,100.308
2067.3167,100.329
2068.2808,100.347
2069.2451,100.357
2070.2092,100.359
2071.1736,100.357
2072.1377,100.354
2073.1021,100.352
2074.0662,100.351
2075.0305,100.349
2075.9946,100.347
2076.9590,100.343
2077.9231,100.34
2078.8875,100.338
2079.8516,100.338
2080.8159,100.338
2081.7800,100.337
2082.7444,100.336
2083.7085,100.334
2084.6729,100.33
2085.6370,100.324
2086.6013,100.318
2087.5654,100.312
2088.5298,100.308
2089.4939,100.306
2090.4583,100.306
2091.4224,100.308
2092.3867,100.31
2093.3508,100.312
2094.3152,100.313
2095.2793,100.313
2096.2437,100.313
2097.2078,100.311
2098.1721,100.308
2099.1362,100.304
2100.1006,100.299
2101.0647,100.297
2102.0291,100.298
2102.9932,100.299
2103.9575,100.3
2104.9216,100.299
2105.8860,100.295
2106.8501,100.29
2107.8145,100.284
2108.7786,100.278
2109.7429,100.274
2110.7070,100.27
2111.6714,100.266
2112.6355,100.263
2113.5999,100.261
2114.5640,100.262
2115.5283,100.266
2116.4924,100.27
2117.4568,100.274
2118.4209,100.275
2119.3853,100.275
2120.3494,100.272
2121.3137,100.27
2122.2778,100.267
2123.2422,100.263
2124.2063,100.259
2125.1707,100.255
2126.1348,100.252
2127.0991,100.252
2128.0632,100.254
2129.0276,100.259
2129.9917,100.265
2130.9561,100.268
2131.9202,100.267
2132.8845,100.262
2133.8486,100.254
2134.8130,100.246
2135.7771,100.241
2136.7415,100.241
2137.7056,100.246
2138.6699,100.255
2139.6340,100.264
2140.5984,100.271
2141.5625,100.276
2142.5269,100.277
2143.4910,100.278
2144.4553,100.279
2145.4194,100.283
2146.3838,100.288
2147.3479,100.295
2148.3123,100.3
2149.2764,100.303
2150.2407,100.301
2151.2048,100.297
2152.1692,100.29
2153.1333,100.282
2154.0977,100.277
2155.0618,100.276
2156.0261,100.278
2156.9902,100.284
2157.9546,100.291
2158.9187,100.296
2159.8831,100.3
2160.8472,100.303
2161.8115,100.304
2162.7756,100.306
2163.7400,100.308
2164.7041,100.308
2165.6685,100.307
2166.6326,100.304
2167.5969,100.298
2168.5610,100.293
2169.5254,100.288
2170.4895,100.287
2171.4539,100.289
2172.4180,100.294
2173.3823,100.301
2174.3464,100.306
2175.3108,100.31
2176.2749,100.311
2177.2393,100.31
2178.2034,100.309
2179.1677,100.308
2180.1318,100.308
2181.0962,100.308
2182.0603,100.306
2183.0247,100.303
2183.9888,100.3
2184.9531,100.297
2185.9172,100.295
2186.8816,100.296
2187.8457,100.298
2188.8101,100.302
2189.7742,100.305
2190.7385,100.308
2191.7026,100.309
2192.6670,100.309
2193.6311,100.31
2194.5955,100.313
2195.5596,100.317
2196.5239,100.321
2197.4880,100.323
2198.4524,100.322
2199.4165,100.316
2200.3809,100.308
2201.3450,100.301
2202.3093,100.297
2203.2734,100.296
2204.2378,100.299
2205.2019,100.302
2206.1663,100.305
2207.1304,100.307
2208.0947,100.308
2209.0588,100.309
2210.0232,100.308
2210.9873,100.305
2211.9517,100.301
2212.9158,100.294
2213.8801,100.287
2214.8442,100.281
2215.8086,100.276
2216.7727,100.272
2217.7371,100.268
2218.7012,100.264
2219.6655,100.258
2220.6296,100.251
2221.5940,100.244
2222.5581,100.239
2223.5225,100.238
2224.4866,100.239
2225.4509,100.24
2226.4150,100.239
2227.3794,100.234
2228.3435,100.224
2229.3079,100.211
2230.2720,100.197
2231.2363,100.185
2232.2004,100.177
2233.1648,100.171
2234.1289,100.167
2235.0933,100.164
2236.0574,100.161
2237.0217,100.159
2237.9858,100.155
2238.9502,100.149
2239.9143,100.141
2240.8787,100.131
2241.8428,100.118
2242.8071,100.105
2243.7712,100.091
2244.7356,100.079
2245.6997,100.067
2246.6641,100.054
2247.6282,100.041
2248.5925,100.028
2249.5566,100.016
2250.5210,100.003
2251.4851,99.9912
2252.4495,99.9784
2253.4136,99.9648
2254.3779,99.9502
2255.3420,99.9347
2256.3064,99.918
2257.2705,99.9004
2258.2349,99.8824
2259.1990,99.8654
2260.1633,99.8504
2261.1274,99.8382
2262.0918,99.8283
2263.0559,99.8199
2264.0203,99.8121
2264.9844,99.8045
2265.9487,99.797
2266.9128,99.7889
2267.8772,99.7791
2268.8413,99.7671
2269.8057,99.7533
2270.7698,99.7402
2271.7341,99.7312
2272.6982,99.7291
2273.6626,99.7345
2274.6267,99.7461
2275.5911,99.7613
2276.5552,99.7783
2277.5195,99.7962
2278.4836,99.8148
2279.4480,99.8331
2280.4121,99.8487
2281.3765,99.8579
2282.3406,99.8567
2283.3049,99.8425
2284.2690,99.815
2285.2334,99.7758
2286.1975,99.7286
2287.1619,99.6774
2288.1260,99.6253
2289.0903,99.5735
2290.0544,99.5217
2291.0188,99.4698
2291.9829,99.4192
2292.9473,99.374
2293.9114,99.3388
2294.8757,99.3171
2295.8398,99.3093
2296.8042,99.3132
2297.7683,99.3274
2298.7327,99.3526
2299.6968,99.3926
2300.6611,99.4505
2301.6252,99.5246
2302.5896,99.6058
2303.5537,99.6791
2304.5181,99.7296
2305.4822,99.7501
2306.4465,99.7472
2307.4106,99.7414
2308.3750,99.7597
2309.3391,99.8229
2310.3035,99.9351
2311.2676,100.08
2312.2319,100.229
2313.1960,100.357
2314.1604,100.455
2315.1245,100.535
2316.0889,100.618
2317.0530,100.725
2318.0173,100.86
2318.9814,101.002
2319.9458,101.109
2320.9099,101.129
2321.8743,101.022
2322.8384,100.784
2323.8027,100.459
2324.7668,100.123
2325.7312,99.8597
2326.6953,99.728
2327.6597,99.7389
2328.6238,99.8491
2329.5881,99.9791
2330.5522,100.038
2331.5166,99.9717
2332.4807,99.7915
2333.4451,99.5571
2334.4092,99.3415
2335.3735,99.1923
2336.3376,99.1132
2337.3020,99.0697
2338.2661,99.012
2339.2305,98.9054
2340.1946,98.7614
2341.1589,98.657
2342.1230,98.7219
2343.0874,99.0392
2344.0515,99.4872
2345.0159,99.7653
2345.9800,99.6853
2346.9443,99.3433
2347.9084,98.9911
2348.8728,98.8381
2349.8369,98.9508
2350.8013,99.2417
2351.7654,99.5196
2352.7297,99.6007
2353.6938,99.4368
2354.6582,99.1322
2355.6223,98.8049
2356.5867,98.4799
2357.5508,98.1482
2358.5151,97.8567
2359.4792,97.6912
2360.4436,97.6885
2361.4077,97.8109
2362.3721,98.0064
2363.3362,98.2631
2364.3005,98.5972
2365.2646,99.0103
2366.2290,99.4733
2367.1931,99.943
2368.1575,100.384
2369.1216,100.777
2370.0859,101.112
2371.0500,101.383
2372.0144,101.587
2372.9785,101.719
2373.9429,101.769
2374.9070,101.729
2375.8713,101.597
2376.8354,101.382
2377.7998,101.11
2378.7639,100.814
2379.7283,100.532
2380.6924,100.291
2381.6567,100.11
2382.6208,99.9939
2383.5852,99.9366
2384.5493,99.924
2385.5137,99.9393
2386.4778,99.9673
2387.4421,99.9966
2388.4063,100.021
2389.3706,100.039
2390.3347,100.05
2391.2991,100.055
2392.2632,100.056
2393.2275,100.054
2394.1917,100.051
2395.1560,100.048
2396.1201,100.047
2397.0845,100.05
2398.0486,100.056
2399.0129,100.064
2399.9771,100.071
2400.9414,100.074
2401.9055,100.073
2402.8699,100.07
2403.8340,100.066
2404.7983,100.064
2405.7625,100.065
2406.7268,100.068
2407.6909,100.07
2408.6553,100.068
2409.6194,100.063
2410.5837,100.057
2411.5479,100.053
2412.5122,100.052
2413.4763,100.056
2414.4407,100.063
2415.4048,100.069
2416.3691,100.073
2417.3333,100.075
2418.2976,100.075
2419.2617,100.076
2420.2261,100.076
2421.1902,100.076
2422.1545,100.075
2423.1187,100.072
2424.0830,100.071
2425.0471,100.071
2426.0115,100.074
2426.9756,100.079
2427.9399,100.086
2428.9041,100.091
2429.8684,100.095
2430.8325,100.099
2431.7969,100.103
2432.7610,100.108
2433.7253,100.111
2434.6895,100.113
2435.6538,100.113
2436.6179,100.111
2437.5823,100.111
2438.5464,100.112
2439.5107,100.115
2440.4749,100.12
2441.4392,100.126
2442.4033,100.131
2443.3677,100.137
2444.3318,100.141
2445.2961,100.145
2446.2603,100.147
2447.2246,100.15
2448.1887,100.152
2449.1531,100.153
2450.1172,100.154
2451.0815,100.154
2452.0457,100.153
2453.0100,100.151
2453.9741,100.149
2454.9385,100.149
2455.9026,100.151
2456.8669,100.154
2457.8311,100.158
2458.7954,100.164
2459.7595,100.17
2460.7239,100.175
2461.6880,100.178
2462.6523,100.178
2463.6165,100.175
2464.5808,100.171
2465.5449,100.166
2466.5093,100.162
2467.4734,100.161
2468.4377,100.161
2469.4019,100.162
2470.3662,100.163
2471.3303,100.163
2472.2947,100.162
2473.2588,100.163
2474.2231,100.164
2475.1873,100.167
2476.1516,100.17
2477.1157,100.172
2478.0801,100.173
2479.0442,100.172
2480.0085,100.172
2480.9727,100.173
2481.9370,100.177
2482.9011,100.182
2483.8655,100.188
2484.8296,100.192
2485.7939,100.193
2486.7581,100.192
2487.7224,100.191
2488.6865,100.192
2489.6509,100.194
2490.6150,100.197
2491.5793,100.199
2492.5435,100.2
2493.5078,100.2
2494.4719,100.202
2495.4363,100.207
2496.4004,100.215
2497.3647,100.225
2498.3289,100.234
2499.2932,100.238
2500.2573,100.236
2501.2217,100.23
2502.1858,100.224
2503.1501,100.222
2504.1143,100.227
2505.0786,100.235
2506.0427,100.245
2507.0071,100.252
2507.9712,100.253
2508.9355,100.25
2509.8997,100.245
2510.8640,100.24
2511.8281,100.237
2512.7925,100.238
2513.7566,100.243
2514.7209,100.252
2515.6851,100.264
2516.6494,100.277
2517.6135,100.288
2518.5779,100.295
2519.5420,100.297
2520.5063,100.293
2521.4705,100.288
2522.4348,100.284
2523.3989,100.283
2524.3633,100.287
2525.3274,100.293
2526.2917,100.299
2527.2559,100.304
2528.2202,100.307
2529.1843,100.307
2530.1487,100.305
2531.1128,100.303
2532.0771,100.3
2533.0413,100.297
2534.0056,100.293
2534.9697,100.29
2535.9341,100.288
2536.8982,100.288
2537.8625,100.29
2538.8267,100.294
2539.7910,100.299
2540.7551,100.304
2541.7195,100.308
2542.6836,100.31
2543.6479,100.313
2544.6121,100.316
2545.5764,100.321
2546.5405,100.326
2547.5049,100.332
2548.4690,100.334
2549.4333,100.334
2550.3975,100.332
2551.3618,100.33
2552.3259,100.33
2553.2903,100.333
2554.2544,100.339
2555.2188,100.346
2556.1829,100.352
2557.1472,100.357
2558.1113,100.361
2559.0757,100.365
2560.0398,100.367
2561.0042,100.368
2561.9683,100.366
2562.9326,100.362
2563.8967,100.356
2564.8611,100.352
2565.8252,100.354
2566.7896,100.362
2567.7537,100.374
2568.7180,100.386
2569.6821,100.392
2570.6465,100.392
2571.6106,100.387
2572.5750,100.379
2573.5391,100.373
2574.5034,100.371
2575.4675,100.371
2576.4319,100.374
2577.3960,100.376
2578.3604,100.378
2579.3245,100.381
2580.2888,100.384
2581.2529,100.389
2582.2173,100.395
2583.1814,100.4
2584.1458,100.404
2585.1099,100.404
2586.0742,100.403
2587.0383,100.4
2588.0027,100.397
2588.9668,100.395
2589.9312,100.396
2590.8953,100.399
2591.8596,100.403
2592.8237,100.405
2593.7881,100.406
2594.7522,100.403
2595.7166,100.399
2596.6807,100.396
2597.6450,100.396
2598.6091,100.4
2599.5735,100.408
2600.5376,100.417
2601.5020,100.424
2602.4661,100.428
2603.4304,100.428
2604.3945,100.427
2605.3589,100.425
2606.3230,100.426
2607.2874,100.43
2608.2515,100.437
2609.2158,100.445
2610.1799,100.452
2611.1443,100.455
2612.1084,100.454
2613.0728,100.451
2614.0369,100.448
2615.0012,100.448
2615.9653,100.452
2616.9297,100.46
2617.8938,100.469
2618.8582,100.476
2619.8223,100.48
2620.7866,100.48
2621.7507,100.477
2622.7151,100.474
2623.6792,100.472
2624.6436,100.472
2625.6077,100.472
2626.5720,100.474
2627.5361,100.477
2628.5005,100.481
2629.4646,100.486
2630.4290,100.489
2631.3931,100.49
2632.3574,100.489
2633.3215,100.486
2634.2859,100.481
2635.2500,100.477
2636.2144,100.474
2637.1785,100.473
2638.1428,100.475
2639.1069,100.479
2640.0713,100.485
2641.0354,100.491
2641.9998,100.496
2642.9639,100.5
2643.9282,100.503
2644.8923,100.503
2645.8567,100.502
2646.8208,100.5
2647.7852,100.495
2648.7493,100.489
2649.7136,100.482
2650.6777,100.476
2651.6421,100.472
2652.6062,100.473
2653.5706,100.478
2654.5347,100.487
2655.4990,100.497
2656.4631,100.507
2657.4275,100.515
2658.3916,100.519
2659.3560,100.519
2660.3201,100.518
2661.2844,100.516
2662.2485,100.516
2663.2129,100.52
2664.1770,100.525
2665.1414,100.532
2666.1055,100.538
2667.0698,100.542
2668.0339,100.546
2668.9983,100.549
2669.9624,100.553
2670.9268,100.559
2671.8909,100.567
2672.8552,100.574
2673.8193,100.582
2674.7837,100.589
2675.7478,100.595
2676.7122,100.599
2677.6763,100.599
2678.6406,100.595
2679.6047,100.586
2680.5691,100.576
2681.5332,100.567
2682.4976,100.561
2683.4617,100.559
2684.4260,100.56
2685.3901,100.563
2686.3545,100.563
2687.3186,100.56
2688.2830,100.554
2689.2471,100.547
2690.2114,100.542
2691.1755,100.539
2692.1399,100.541
2693.1040,100.545
2694.0684,100.551
2695.0325,100.557
2695.9968,100.562
2696.9609,100.566
2697.9253,100.57
2698.8894,100.572
2699.8538,100.571
2700.8179,100.567
2701.7822,100.559
2702.7463,100.548
2703.7107,100.535
2704.6748,100.523
2705.6392,100.515
2706.6033,100.509
2707.5676,100.506
2708.5317,100.504
2709.4961,100.502
2710.4602,100.5
2711.4246,100.499
2712.3887,100.498
2713.3530,100.495
2714.3171,100.49
2715.2815,100.481
2716.2456,100.47
2717.2100,100.458
2718.1741,100.449
2719.1384,100.444
2720.1025,100.443
2721.0669,100.445
2722.0310,100.45
2722.9954,100.453
2723.9595,100.456
2724.9238,100.456
2725.8879,100.454
2726.8523,100.449
2727.8164,100.443
2728.7808,100.436
2729.7449,100.427
2730.7092,100.418
2731.6733,100.411
2732.6377,100.407
2733.6018,100.405
2734.5662,100.405
2735.5303,100.403
2736.4946,100.397
2737.4587,100.387
2738.4231,100.373
2739.3872,100.36
2740.3516,100.352
2741.3157,100.351
2742.2800,100.357
2743.2441,100.369
2744.2085,100.383
2745.1726,100.395
2746.1370,100.403
2747.1011,100.406
2748.0654,100.404
2749.0295,100.399
2749.9939,100.393
2750.9580,100.389
2751.9224,100.388
2752.8865,100.391
2753.8508,100.394
2754.8149,100.395
2755.7793,100.391
2756.7434,100.384
2757.7078,100.374
2758.6719,100.364
2759.6362,100.356
2760.6003,100.351
2761.5647,100.35
2762.5288,100.351
2763.4932,100.353
2764.4573,100.355
2765.4216,100.355
2766.3857,100.355
2767.3501,100.356
2768.3142,100.361
2769.2786,100.368
2770.2427,100.376
2771.2070,100.381
2772.1711,100.379
2773.1355,100.369
2774.0996,100.354
2775.0640,100.34
2776.0281,100.33
2776.9924,100.326
2777.9565,100.326
2778.9209,100.326
2779.8850,100.321
2780.8494,100.311
2781.8135,100.297
2782.7778,100.284
2783.7419,100.273
2784.7063,100.265
2785.6704,100.26
2786.6348,100.253
2787.5989,100.244
2788.5632,100.23
2789.5273,100.212
2790.4917,100.191
2791.4558,100.169
2792.4202,100.148
2793.3843,100.13
2794.3486,100.115
2795.3127,100.1
2796.2771,100.085
2797.2412,100.067
2798.2056,100.048
2799.1697,100.026
2800.1340,100.004
2801.0981,99.9815
2802.0625,99.9585
2803.0266,99.9356
2803.9910,99.9133
2804.9551,99.8922
2805.9194,99.8717
2806.8835,99.8502
2807.8479,99.8251
2808.8120,99.7941
2809.7764,99.7563
2810.7405,99.7124
2811.7048,99.6644
2812.6689,99.6144
2813.6333,99.5642
2814.5974,99.5146
2815.5618,99.4654
2816.5259,99.4154
2817.4902,99.3617
2818.4543,99.301
2819.4187,99.2299
2820.3828,99.1469
2821.3472,99.0529
2822.3113,98.9505
2823.2756,98.8423
2824.2397,98.7296
2825.2041,98.6112
2826.1682,98.4854
2827.1326,98.3507
2828.0967,98.2074
2829.0610,98.0573
2830.0251,97.9023
2830.9895,97.7439
2831.9536,97.5838
2832.9180,97.4239
2833.8821,97.2673
2834.8464,97.1177
2835.8105,96.9776
2836.7749,96.8479
2837.7390,96.7279
2838.7034,96.6173
2839.6675,96.5169
2840.6318,96.4291
2841.5959,96.3559
2842.5603,96.2967
2843.5244,96.247
2844.4888,96.1995
2845.4529,96.1473
2846.4172,96.0876
2847.3813,96.0231
2848.3457,95.9606
2849.3098,95.9073
2850.2742,95.8667
2851.2383,95.8371
2852.2026,95.8129
2853.1667,95.7878
2854.1311,95.7577
2855.0952,95.7212
2856.0596,95.6784
2857.0237,95.6291
2857.9880,95.5712
2858.9521,95.5019
2859.9165,95.4191
2860.8806,95.3224
2861.8450,95.2137
2862.8091,95.097
2863.7734,94.9769
2864.7375,94.8589
2865.7019,94.7476
2866.6660,94.6461
2867.6304,94.5549
2868.5945,94.4724
2869.5588,94.3953
2870.5229,94.3207
2871.4873,94.2467
2872.4514,94.1724
2873.4158,94.097
2874.3799,94.019
2875.3442,93.9359
2876.3083,93.8449
2877.2727,93.7439
2878.2368,93.6319
2879.2012,93.5105
2880.1653,93.384
2881.1296,93.2596
2882.0938,93.1459
2883.0581,93.051
2884.0222,92.9788
2884.9866,92.9277
2885.9507,92.8898
2886.9150,92.8534
2887.8792,92.8067
2888.8435,92.7426
2889.8076,92.6622
2890.7720,92.5743
2891.7361,92.4916
2892.7004,92.4215
2893.6646,92.3593
2894.6289,92.2855
2895.5930,92.1745
2896.5574,92.0093
2897.5215,91.7958
2898.4858,91.5659
2899.4500,91.3667
2900.4143,91.2394
2901.3784,91.2007
2902.3428,91.2368
2903.3069,91.3121
2904.2712,91.388
2905.2354,91.4379
2906.1997,91.4536
2907.1638,91.4412
2908.1282,91.4127
2909.0923,91.3795
2910.0566,91.3495
2911.0208,91.3267
2911.9851,91.311
2912.9492,91.2981
2913.9136,91.2806
2914.8777,91.2513
2915.8420,91.2065
2916.8062,91.1479
2917.7705,91.0812
2918.7346,91.0134
2919.6990,90.9494
2920.6631,90.8915
2921.6274,90.8401
2922.5916,90.7944
2923.5559,90.7529
2924.5200,90.713
2925.4844,90.6717
2926.4485,90.6269
2927.4128,90.5785
2928.3770,90.5284
2929.3413,90.4789
2930.3054,90.4312
2931.2698,90.3848
2932.2339,90.3396
2933.1982,90.2977
2934.1624,90.2644
2935.1267,90.2461
2936.0908,90.2479
2937.0552,90.271
2938.0193,90.3124
2938.9836,90.3671
2939.9478,90.4307
2940.9121,90.5015
2941.8762,90.5799
2942.8406,90.6666
2943.8047,90.7609
2944.7690,90.8583
2945.7332,90.9518
2946.6975,91.0332
2947.6616,91.0956
2948.6260,91.1353
2949.5901,91.152
2950.5544,91.1486
2951.5186,91.129
2952.4829,91.0967
2953.4470,91.0551
2954.4114,91.007
2955.3755,90.9554
2956.3398,90.9036
2957.3040,90.8543
2958.2683,90.8079
2959.2324,90.7623
2960.1968,90.713
2961.1609,90.6554
2962.1252,90.5863
2963.0894,90.5052
2964.0537,90.4143
2965.0178,90.3175
2965.9822,90.2197
2966.9463,90.1264
2967.9106,90.0446
2968.8748,89.982
2969.8391,89.946
2970.8032,89.9417
2971.7676,89.9699
2972.7317,90.0269
2973.6960,90.1057
2974.6602,90.1977
2975.6245,90.2952
2976.5886,90.3924
2977.5530,90.487
2978.5171,90.5793
2979.4814,90.6718
2980.4456,90.7647
2981.4099,90.8528
2982.3740,90.9237
2983.3384,90.9629
2984.3025,90.9639
2985.2668,90.9387
2986.2310,90.9213
2987.1953,90.9577
2988.1594,91.086
2989.1238,91.3161
2990.0879,91.6223
2991.0522,91.953
2992.0164,92.2538
2992.9807,92.4908
2993.9448,92.6615
2994.9092,92.7893
2995.8733,92.9065
2996.8376,93.0377
2997.8018,93.1911
2998.7661,93.362
2999.7302,93.5403
3000.6946,93.7191
3001.6587,93.8979
3002.6230,94.0806
3003.5872,94.2726
3004.5515,94.4767
3005.5156,94.6915
3006.4800,94.9115
3007.4441,95.1293
3008.4084,95.3383
3009.3726,95.5358
3010.3369,95.7242
3011.3010,95.9095
3012.2654,96.098
3013.2295,96.2921
3014.1938,96.4896
3015.1580,96.6844
3016.1223,96.8703
3017.0864,97.0436
3018.0508,97.204
3019.0149,97.3535
3019.9792,97.4948
3020.9434,97.6301
3021.9077,97.7617
3022.8718,97.8916
3023.8362,98.0211
3024.8003,98.1491
3025.7646,98.2717
3026.7288,98.3839
3027.6931,98.4821
3028.6572,98.567
3029.6216,98.6438
3030.5857,98.7201
3031.5500,98.8016
3032.5142,98.89
3033.4785,98.9825
3034.4426,99.0751
3035.4070,99.1644
3036.3711,99.249
3037.3354,99.3281
3038.2996,99.4004
3039.2639,99.4634
3040.2280,99.5147
3041.1924,99.5535
3042.1565,99.581
3043.1208,99.6003
3044.0850,99.6155
3045.0493,99.6303
3046.0134,99.6471
3046.9778,99.6666
3047.9419,99.6869
3048.9063,99.6992
3049.8704,99.7025
3050.8347,99.6952
3051.7988,99.6782
3052.7632,99.6564
3053.7273,99.6367
3054.6917,99.6251
3055.6558,99.6249
3056.6201,99.6349
3057.5842,99.6498
3058.5486,99.6623
3059.5127,99.6648
3060.4771,99.6524
3061.4412,99.6249
3062.4055,99.5878
3063.3696,99.5513
3064.3340,99.5261
3065.2981,99.5184
3066.2625,99.5265
3067.2266,99.5419
3068.1909,99.5544
3069.1550,99.558
3070.1194,99.5533
3071.0835,99.5459
3072.0479,99.5416
3073.0120,99.5419
3073.9763,99.5431
3074.9404,99.5389
3075.9048,99.5252
3076.8689,99.5034
3077.8333,99.4796
3078.7974,99.4613
3079.7617,99.4532
3080.7258,99.4554
3081.6902,99.4642
3082.6543,99.475
3083.6187,99.4844
3084.5828,99.4912
3085.5471,99.4954
3086.5112,99.4969
3087.4756,99.4952
3088.4397,99.4893
3089.4041,99.4782
3090.3682,99.4619
3091.3325,99.4416
3092.2966,99.4193
3093.2610,99.3976
3094.2251,99.3778
3095.1895,99.3597
3096.1536,99.3418
3097.1179,99.3222
3098.0820,99.3008
3099.0464,99.2793
3100.0105,99.2614
3100.9749,99.25
3101.9390,99.2459
3102.9033,99.2471
3103.8674,99.2503
3104.8318,99.2522
3105.7959,99.2509
3106.7603,99.2457
3107.7244,99.2359
3108.6887,99.2207
3109.6528,99.1992
3110.6172,99.1718
3111.5813,99.1409
3112.5457,99.1101
3113.5098,99.0832
3114.4741,99.0628
3115.4382,99.0487
3116.4026,99.0391
3117.3667,99.0313
3118.3311,99.023
3119.2952,99.0129
3120.2595,99.0012
3121.2236,98.9887
3122.1880,98.9772
3123.1521,98.9689
3124.1165,98.9652
3125.0806,98.9659
3126.0449,98.9676
3127.0090,98.9644
3127.9734,98.9504
3128.9375,98.9233
3129.9019,98.8869
3130.8660,98.851
3131.8303,98.8267
3132.7944,98.8213
3133.7588,98.8336
3134.7229,98.8544
3135.6873,98.8714
3136.6514,98.8752
3137.6157,98.8641
3138.5798,98.8431
3139.5442,98.8205
3140.5083,98.8027
3141.4727,98.7908
3142.4368,98.7816
3143.4011,98.7705
3144.3652,98.7548
3145.3296,98.7358
3146.2937,98.7175
3147.2581,98.7041
3148.2222,98.697
3149.1865,98.6937
3150.1506,98.6885
3151.1150,98.676
3152.0791,98.6537
3153.0435,98.6231
3154.0076,98.5891
3154.9719,98.5568
3155.9360,98.5297
3156.9004,98.5084
3157.8645,98.4915
3158.8289,98.4771
3159.7930,98.4641
3160.7573,98.4519
3161.7214,98.4395
3162.6858,98.4254
3163.6499,98.4076
3164.6143,98.3848
3165.5784,98.3581
3166.5427,98.3312
3167.5068,98.3085
3168.4712,98.2932
3169.4353,98.3696
3170.3997,98.3616
3171.3638,98.3471
3172.3281,98.3209
3173.2922,98.2829
3174.2566,98.2379
3175.2207,98.194
3176.1851,98.1583
3177.1492,98.1343
3178.1135,98.12
3179.0776,98.1098
3180.0420,98.0977
3181.0061,98.0808
3181.9705,98.0602
3182.9346,98.0398
3183.8989,98.0236
3184.8630,98.0127
3185.8274,98.0047
3186.7915,97.9943
3187.7559,97.9773
3188.7200,97.9526
3189.6843,97.9228
3190.6484,97.8927
3191.6128,97.8661
3192.5769,97.8437
3193.5413,97.8235
3194.5054,97.8027
3195.4697,97.7797
3196.4338,97.7554
3197.3982,97.7322
3198.3623,97.7124
3199.3267,97.697
3200.2908,97.6854
3201.2551,97.6759
3202.2192,97.6657
3203.1836,97.6518
3204.1477,97.6315
3205.1121,97.6042
3206.0762,97.5723
3207.0405,97.5411
3208.0046,97.5151
3208.9690,97.4962
3209.9331,97.4814
3210.8975,97.4658
3211.8616,97.4461
3212.8259,97.4237
3213.7900,97.4039
3214.7544,97.3919
3215.7185,97.3885
3216.6829,97.3888
3217.6470,97.3847
3218.6113,97.3705
3219.5754,97.3458
3220.5398,97.3154
3221.5039,97.2862
3222.4683,97.2624
3223.4324,97.2449
3224.3967,97.2321
3225.3608,97.2226
3226.3252,97.2166
3227.2893,97.2152
3228.2537,97.2183
3229.2178,97.2229
3230.1821,97.2242
3231.1462,97.2173
3232.1106,97.2004
3233.0747,97.1756
3234.0391,97.1478
3235.0032,97.1221
3235.9675,97.1016
3236.9316,97.0864
3237.8960,97.074
3238.8601,97.0612
3239.8245,97.0458
3240.7886,97.0273
3241.7529,97.0071
3242.7170,96.9879
3243.6814,96.9719
3244.6455,96.9604
3245.6099,96.9526
3246.5740,96.9457
3247.5383,96.937
3248.5024,96.9249
3249.4668,96.9097
3250.4309,96.8934
3251.3953,96.878
3252.3594,96.8642
3253.3237,96.8508
3254.2878,96.8363
3255.2522,96.8199
3256.2163,96.8031
3257.1807,96.7882
3258.1448,96.7762
3259.1091,96.7652
3260.0732,96.7507
3261.0376,96.7288
3262.0017,96.6997
3262.9661,96.6692
3263.9302,96.6458
3264.8945,96.6357
3265.8586,96.6386
3266.8230,96.6466
3267.7871,96.6477
3268.7515,96.6319
3269.7156,96.5963
3270.6799,96.5462
3271.6440,96.4925
3272.6084,96.4467
3273.5725,96.4167
3274.5369,96.404
3275.5010,96.4051
3276.4653,96.4133
3277.4294,96.4217
3278.3938,96.4248
3279.3579,96.4195
3280.3223,96.405
3281.2864,96.3832
3282.2507,96.3575
3283.2148,96.3322
3284.1792,96.3111
3285.1433,96.2961
3286.1077,96.2869
3287.0718,96.2814
3288.0361,96.277
3289.0002,96.2718
3289.9646,96.2655
3290.9287,96.2582
3291.8931,96.2504
3292.8572,96.2412
3293.8215,96.2289
3294.7856,96.2115
3295.7500,96.1878
3296.7141,96.1589
3297.6785,96.1287
3298.6426,96.1026
3299.6069,96.0865
3300.5710,96.0835
3301.5354,96.0924
3302.4995,96.107
3303.4639,96.1179
3304.4280,96.1159
3305.3923,96.0964
3306.3564,96.061
3307.3208,96.0171
3308.2849,95.9749
3309.2493,95.9427
3310.2134,95.9239
3311.1777,95.9163
3312.1418,95.9142
3313.1062,95.9111
3314.0703,95.9025
3315.0347,95.8867
3315.9988,95.865
3316.9631,95.8406
3317.9272,95.8173
3318.8916,95.7986
3319.8557,95.7869
3320.8201,95.7827
3321.7842,95.7845
3322.7485,95.7884
3323.7126,95.7897
3324.6770,95.7844
3325.6411,95.7708
3326.6055,95.7503
3327.5696,95.7267
3328.5339,95.7036
3329.4980,95.6837
3330.4624,95.6679
3331.4265,95.6562
3332.3909,95.6481
3333.3550,95.643
3334.3193,95.6397
3335.2834,95.6366
3336.2478,95.6317
3337.2119,95.624
3338.1763,95.6146
3339.1404,95.6059
3340.1047,95.5992
3341.0688,95.5939
3342.0332,95.5869
3342.9973,95.5751
3343.9617,95.5586
3344.9258,95.5411
3345.8901,95.5281
3346.8542,95.5227
3347.8186,95.5228
3348.7827,95.5219
3349.7471,95.5123
3350.7112,95.4911
3351.6755,95.4617
3352.6396,95.4321
3353.6040,95.4104
3354.5681,95.4004
3355.5325,95.3999
3356.4966,95.4031
3357.4609,95.4037
3358.4250,95.3985
3359.3894,95.3878
3360.3535,95.3741
3361.3179,95.3605
3362.2820,95.3494
3363.2463,95.3422
3364.2104,95.3393
3365.1748,95.3401
3366.1389,95.3426
3367.1033,95.3447
3368.0674,95.345
3369.0317,95.3439
3369.9958,95.343
3370.9602,95.3439
3371.9243,95.3456
3372.8887,95.3444
3373.8528,95.3355
3374.8171,95.3167
3375.7813,95.2906
3376.7456,95.2643
3377.7097,95.2459
3378.6741,95.2393
3379.6382,95.2422
3380.6025,95.2471
3381.5667,95.247
3382.5310,95.2395
3383.4951,95.2291
3384.4595,95.2235
3385.4236,95.2285
3386.3879,95.2432
3387.3521,95.261
3388.3164,95.274
3389.2805,95.2772
3390.2449,95.2713
3391.2090,95.2613
3392.1733,95.2532
3393.1375,95.2515
3394.1018,95.2582
3395.0659,95.2731
3396.0303,95.2951
3396.9944,95.3204
3397.9587,95.3429
3398.9229,95.3555
3399.8872,95.3535
3400.8513,95.3377
3401.8157,95.3148
3402.7798,95.2936
3403.7441,95.2805
3404.7083,95.2772
3405.6726,95.2813
3406.6367,95.2891
3407.6011,95.2981
3408.5652,95.3078
3409.5295,95.3179
3410.4937,95.3271
3411.4580,95.3331
3412.4221,95.3338
3413.3865,95.3287
3414.3506,95.319
3415.3149,95.3071
3416.2791,95.2947
3417.2434,95.2839
3418.2075,95.2775
3419.1719,95.2797
3420.1360,95.2944
3421.1003,95.322
3422.0645,95.3587
3423.0288,95.3973
3423.9929,95.4311
3424.9573,95.4569
3425.9214,95.4757
3426.8857,95.4916
3427.8499,95.5102
3428.8142,95.5351
3429.7783,95.5666
3430.7427,95.6012
3431.7068,95.6345
3432.6711,95.6629
3433.6353,95.6848
3434.5996,95.7005
3435.5637,95.7102
3436.5281,95.7138
3437.4922,95.7112
3438.4565,95.7035
3439.4207,95.6933
3440.3850,95.6834
3441.3491,95.6748
3442.3135,95.6664
3443.2776,95.6568
3444.2419,95.6476
3445.2061,95.645
3446.1704,95.6575
3447.1345,95.6897
3448.0989,95.7376
3449.0630,95.7908
3450.0273,95.8393
3450.9915,95.8787
3451.9558,95.9101
3452.9199,95.9365
3453.8843,95.9597
3454.8484,95.9784
3455.8127,95.9897
3456.7769,95.9913
3457.7412,95.9846
3458.7053,95.9752
3459.6697,95.9711
3460.6338,95.9794
3461.5981,96.0034
3462.5623,96.0405
3463.5266,96.0835
3464.4907,96.1238
3465.4551,96.1552
3466.4192,96.1757
3467.3835,96.1873
3468.3477,96.1935
3469.3120,96.1963
3470.2761,96.1966
3471.2405,96.1959
3472.2046,96.1973
3473.1689,96.2053
3474.1331,96.2221
3475.0974,96.2443
3476.0615,96.2633
3477.0259,96.2702
3477.9900,96.262
3478.9543,96.2448
3479.9185,96.2313
3480.8828,96.2344
3481.8469,96.2578
3482.8113,96.2942
3483.7754,96.3305
3484.7397,96.3573
3485.7039,96.374
3486.6682,96.3874
3487.6323,96.4067
3488.5967,96.4365
3489.5608,96.474
3490.5251,96.511
3491.4893,96.5395
3492.4536,96.5561
3493.4177,96.5638
3494.3821,96.5693
3495.3462,96.5782
3496.3105,96.5894
3497.2747,96.5946
3498.2390,96.584
3499.2031,96.5528
3500.1675,96.5075
3501.1316,96.4667
3502.0959,96.4544
3503.0601,96.4835
3504.0244,96.5447
3504.9885,96.6141
3505.9529,96.6713
3506.9170,96.7094
3507.8813,96.7349
3508.8455,96.761
3509.8098,96.7989
3510.7739,96.85
3511.7383,96.906
3512.7024,96.9565
3513.6667,96.9967
3514.6309,97.0277
3515.5952,97.0533
3516.5593,97.0758
3517.5237,97.0944
3518.4878,97.1056
3519.4521,97.1061
3520.4163,97.0952
3521.3806,97.0768
3522.3447,97.0579
3523.3091,97.046
3524.2732,97.0462
3525.2375,97.0617
3526.2017,97.0972
3527.1660,97.1583
3528.1301,97.2471
3529.0945,97.3561
3530.0586,97.4683
3531.0229,97.5657
3531.9871,97.6381
3532.9514,97.6867
3533.9155,97.7217
3534.8799,97.7585
3535.8440,97.8094
3536.8083,97.8764
3537.7725,97.9481
3538.7368,98.0079
3539.7009,98.0437
3540.6653,98.0529
3541.6294,98.042
3542.5938,98.0259
3543.5579,98.0277
3544.5222,98.0714
3545.4863,98.1623
3546.4507,98.2769
3547.4148,98.3783
3548.3792,98.4459
3549.3433,98.4849
3550.3076,98.5182
3551.2717,98.5714
3552.2361,98.6598
3553.2002,98.7789
3554.1646,98.9067
3555.1287,99.0202
3556.0930,99.1068
3557.0571,99.1635
3558.0215,99.1904
3558.9856,99.1876
3559.9500,99.157
3560.9141,99.1044
3561.8784,99.0388
3562.8425,98.9692
3563.8069,98.905
3564.7710,98.8729
3565.7354,98.9314
3566.6995,99.1259
3567.6638,99.4013
3568.6279,99.6322
3569.5923,99.7515
3570.5564,99.7844
3571.5208,99.7866
3572.4849,99.7928
3573.4492,99.809
3574.4133,99.8271
3575.3777,99.8407
3576.3418,99.8507
3577.3062,99.8603
3578.2703,99.8693
3579.2346,99.8716
3580.1987,99.8594
3581.1631,99.8367
3582.1272,99.8149
3583.0916,99.8053
3584.0557,99.8086
3585.0200,99.8202
3585.9841,99.8486
3586.9485,99.9087
3587.9126,99.9756
3588.8770,99.9864
3589.8411,99.9136
3590.8054,99.788
3591.7695,99.6579
3592.7339,99.5545
3593.6980,99.4886
3594.6624,99.4558
3595.6265,99.4402
3596.5908,99.4251
3597.5549,99.4095
3598.5193,99.4099
3599.4834,99.4448
3600.4478,99.516
3601.4119,99.6041
3602.3762,99.6861
3603.3403,99.754
3604.3047,99.8147
3605.2688,99.878
3606.2332,99.9518
3607.1973,100.039
3608.1616,100.129
3609.1257,100.192
3610.0901,100.196
3611.0542,100.136
3612.0186,100.035
3612.9829,99.9306
3613.9470,99.8562
3614.9114,99.8269
3615.8755,99.8389
3616.8398,99.8783
3617.8040,99.9323
3618.7683,99.9876
3619.7324,100.012
3620.6968,99.9623
3621.6609,99.8336
3622.6252,99.6839
3623.5894,99.5935
3624.5537,99.6095
3625.5178,99.7189
3626.4822,99.8653
3627.4463,100.007
3628.4106,100.143
3629.3748,100.236
3630.3391,100.213
3631.3032,100.085
3632.2676,99.9431
3633.2317,99.8641
3634.1960,99.8653
3635.1602,99.9154
3636.1245,99.9693
3637.0886,99.9975
3638.0530,99.9949
3639.0171,99.9696
3639.9814,99.9297
3640.9456,99.8807
3641.9099,99.832
3642.8740,99.8011
3643.8384,99.8025
3644.8025,99.8233
3645.7668,99.8078
3646.7310,99.7003
3647.6953,99.5754
3648.6594,99.6542
3649.6238,99.9449
3650.5879,100.163
3651.5522,100.172
3652.5164,100.063
3653.4807,99.9587
3654.4448,99.9052
3655.4092,99.8878
3656.3733,99.8704
3657.3376,99.8279
3658.3018,99.7632
3659.2661,99.7045
3660.2302,99.6793
3661.1946,99.6892
3662.1587,99.7121
3663.1230,99.727
3664.0872,99.7364
3665.0515,99.7589
3666.0156,99.7996
3666.9800,99.8312
3667.9441,99.8161
3668.9084,99.7576
3669.8726,99.6986
3670.8369,99.6642
3671.8010,99.647
3672.7654,99.6291
3673.7295,99.5974
3674.6938,99.5723
3675.6580,99.6019
3676.6223,99.6755
3677.5864,99.7222
3678.5508,99.7154
3679.5149,99.6846
3680.4792,99.655
3681.4434,99.6263
3682.4077,99.5944
3683.3718,99.5722
3684.3362,99.5817
3685.3003,99.6243
3686.2646,99.6605
3687.2288,99.6365
3688.1931,99.5584
3689.1572,99.5099
3690.1216,99.5345
3691.0857,99.5783
3692.0500,99.5911
3693.0142,99.5775
3693.9785,99.5629
3694.9426,99.566
3695.9070,99.5966
3696.8711,99.6608
3697.8354,99.7597
3698.7996,99.8848
3699.7639,100.017
3700.7280,100.135
3701.6924,100.219
3702.6565,100.255
3703.6208,100.245
3704.5850,100.211
3705.5493,100.184
3706.5134,100.174
3707.4778,100.171
3708.4419,100.166
3709.4063,100.207
3710.3704,100.399
3711.3347,100.755
3712.2988,101.111
3713.2632,101.297
3714.2273,101.289
3715.1917,101.165
3716.1558,101.006
3717.1201,100.851
3718.0842,100.705
3719.0486,100.56
3720.0127,100.414
3720.9771,100.277
3721.9412,100.166
3722.9055,100.094
3723.8696,100.072
3724.8340,100.094
3725.7981,100.139
3726.7625,100.187
3727.7266,100.233
3728.6909,100.285
3729.6550,100.349
3730.6194,100.402
3731.5835,100.408
3732.5479,100.351
3733.5120,100.292
3734.4763,100.342
3735.4404,100.515
3736.4048,100.672
3737.3689,100.708
3738.3333,100.674
3739.2974,100.702
3740.2617,100.889
3741.2258,101.235
3742.1902,101.636
3743.1543,101.921
3744.1187,101.959
3745.0828,101.748
3746.0471,101.4
3747.0112,101.064
3747.9756,100.842
3748.9397,100.78
3749.9041,100.893
3750.8682,101.127
3751.8325,101.302
3752.7966,101.273
3753.7610,101.079
3754.7251,100.856
3755.6895,100.703
3756.6536,100.653
3757.6179,100.693
3758.5820,100.787
3759.5464,100.88
3760.5105,100.93
3761.4749,100.931
3762.4390,100.909
3763.4033,100.891
3764.3674,100.89
3765.3318,100.905
3766.2959,100.928
3767.2603,100.951
3768.2244,100.974
3769.1887,101.003
3770.1528,101.035
3771.1172,101.053
3772.0813,101.042
3773.0457,101.007
3774.0098,100.965
3774.9741,100.932
3775.9382,100.91
3776.9026,100.892
3777.8667,100.876
3778.8311,100.865
3779.7952,100.85
3780.7595,100.816
3781.7236,100.761
3782.6880,100.704
3783.6521,100.668
3784.6165,100.676
3785.5806,100.727
3786.5449,100.802
3787.5090,100.876
3788.4734,100.925
3789.4375,100.949
3790.4019,100.954
3791.3660,100.947
3792.3303,100.924
3793.2944,100.867
3794.2588,100.769
3795.2229,100.643
3796.1873,100.524
3797.1514,100.447
3798.1157,100.422
3799.0798,100.433
3800.0442,100.456
3801.0083,100.479
3801.9727,100.497
3802.9368,100.511
3803.9011,100.542
3804.8652,100.618
3805.8296,100.739
3806.7937,100.862
3807.7581,100.922
3808.7222,100.884
3809.6865,100.784
3810.6506,100.703
3811.6150,100.699
3812.5791,100.76
3813.5435,100.814
3814.5076,100.786
3815.4719,100.657
3816.4360,100.47
3817.4004,100.289
3818.3645,100.172
3819.3289,100.149
3820.2930,100.216
3821.2573,100.317
3822.2214,100.365
3823.1858,100.324
3824.1499,100.235
3825.1143,100.165
3826.0784,100.157
3827.0427,100.207
3828.0068,100.286
3828.9712,100.355
3829.9353,100.392
3830.8997,100.397
3831.8638,100.385
3832.8281,100.371
3833.7922,100.353
3834.7566,100.311
3835.7207,100.219
3836.6851,100.078
3837.6492,99.9342
3838.6135,99.8482
3839.5776,99.8471
3840.5420,99.9168
3841.5061,100.031
3842.4705,100.162
3843.4346,100.273
3844.3989,100.322
3845.3630,100.289
3846.3274,100.2
3847.2915,100.12
3848.2559,100.121
3849.2200,100.239
3850.1843,100.449
3851.1484,100.677
3852.1128,100.879
3853.0769,101.066
3854.0413,101.145
3855.0054,100.987
3855.9697,100.655
3856.9338,100.328
3857.8982,100.123
3858.8623,100.057
3859.8267,100.071
3860.7908,100.087
3861.7551,100.056
3862.7192,100.002
3863.6836,99.9815
3864.6477,100.023
3865.6121,100.105
3866.5762,100.186
3867.5405,100.228
3868.5046,100.21
3869.4690,100.147
3870.4331,100.082
3871.3975,100.053
3872.3616,100.066
3873.3259,100.097
3874.2900,100.131
3875.2544,100.163
3876.2185,100.19
3877.1829,100.201
3878.1470,100.178
3879.1113,100.115
3880.0754,100.036
3881.0398,99.9821
3882.0039,99.9908
3882.9683,100.07
3883.9324,100.195
3884.8967,100.315
3885.8608,100.379
3886.8252,100.364
3887.7893,100.286
3888.7537,100.183
3889.7178,100.093
3890.6821,100.039
3891.6462,100.025
3892.6106,100.03
3893.5747,100.023
3894.5391,100.003
3895.5032,99.989
3896.4675,99.9922
3897.4316,100.001
3898.3960,99.9964
3899.3601,99.9716
3900.3245,99.9317
3901.2886,99.8874
3902.2529,99.857
3903.2170,99.8617
3904.1814,99.9056
3905.1455,99.9666
3906.1099,100.021
3907.0740,100.061
3908.0383,100.094
3909.0024,100.124
3909.9668,100.146
3910.9309,100.155
3911.8953,100.148
3912.8594,100.127
3913.8237,100.1
3914.7878,100.075
3915.7522,100.06
3916.7163,100.062
3917.6807,100.073
3918.6448,100.07
3919.6091,100.034
3920.5732,99.9619
3921.5376,99.8731
3922.5017,99.7925
3923.4661,99.7401
3924.4302,99.7188
3925.3945,99.7123
3926.3586,99.6982
3927.3230,99.6666
3928.2871,99.6252
3929.2515,99.5943
3930.2156,99.5988
3931.1799,99.6546
3932.1440,99.7532
3933.1084,99.8611
3934.0725,99.943
3935.0369,99.983
3936.0010,99.9841
3936.9653,99.9561
3937.9294,99.9066
3938.8938,99.8416
3939.8579,99.7703
3940.8223,99.7087
3941.7864,99.6742
3942.7507,99.6731
3943.7148,99.694
3944.6792,99.7155
3945.6433,99.7203
3946.6077,99.7031
3947.5718,99.6715
3948.5361,99.641
3949.5002,99.6254
3950.4646,99.6275
3951.4287,99.6411
3952.3931,99.6582
3953.3572,99.6747
3954.3215,99.6896
3955.2856,99.7027
3956.2500,99.7132
3957.2141,99.7199
3958.1785,99.7221
3959.1426,99.7218
3960.1069,99.7227
3961.0710,99.7286
3962.0354,99.7403
3962.9995,99.7541
3963.9639,99.7643
3964.9280,99.7658
3965.8923,99.7565
3966.8564,99.7369
3967.8208,99.7092
3968.7849,99.676
3969.7493,99.641
3970.7134,99.609
3971.6777,99.5865
3972.6418,99.5798
3973.6062,99.592
3974.5703,99.6206
3975.5347,99.657
3976.4988,99.6906
3977.4631,99.7131
3978.4272,99.7213
3979.3916,99.7169
3980.3557,99.7046
3981.3201,99.6884
3982.2842,99.671
3983.2485,99.6531
3984.2126,99.6347
3985.1770,99.6166
3986.1411,99.5997
3987.1055,99.5847
3988.0696,99.5704
3989.0339,99.5537
3989.9980,99.5325
3990.9624,99.5076
3991.9265,99.4846
3992.8909,99.4717
3993.8550,99.4749
3994.8193,99.4939
3995.7834,99.5208
3996.7478,99.5449
3997.7119,99.5582
3998.6763,99.5599
3999.6404,99.5548
4000.6047,99.3722

##### Extended Information
[Comments]
Sample name
Comment
User
Division
Company,HANKYONG

[Detailed Information]
Creation date,4/24/2024 12:08 PM

Data array type,Linear data array
Horizontal axis,Wavenumber [cm-1]
Vertical axis,%T
Start,649.893 cm-1
End,4000.6 cm-1
Data interval,0.964233 cm-1
Data points,3476    

[Measurement Information]
Model Name,FT/IR-4700typeA
Serial Number,D056761788

Accessory,ATR PRO ONE
Accessory S/N,C174761809
Incident angle,45 deg

Measurement Date,4/24/2024 12:07 PM

Light Source,Standard
Detector,TGS
Accumulation,32
Resolution,4 cm-1
Zero Filling,On
Apodization,Cosine
Gain,Auto (4)
Aperture,Auto (7.1 mm)
Scanning Speed,Auto (2 mm/sec)
Filter,Auto (30000 Hz)

