TITLE,
DATA TYPE,INFRARED SPECTRUM
ORIGIN,JASCO
OWNER,
DATE,24/04/24
TIME,12:11:32
SPECTROMETER/DATA SYSTEM,
LOCALE,1033
RESOLUTION,
DELTAX,0.964233
XUNITS,1/CM
YUNITS,TRANSMITTANCE
FIRSTX,  649.8934
LASTX, 4000.6047
NPOINTS,    3476
FIRSTY,    99.44672
MAXY,   101.44908
MINY,    66.41399
XYDATA
649.8934,99.4467
650.8576,99.4478
651.8218,99.4802
652.7861,99.549
653.7503,99.6361
654.7145,99.7203
655.6788,99.7807
656.6430,99.8052
657.6072,99.799
658.5715,99.7892
659.5357,99.8159
660.4999,99.9057
661.4642,100.043
662.4284,100.167
663.3926,100.197
664.3569,100.058
665.3211,99.6881
666.2853,99.0718
667.2496,98.3297
668.2138,97.8112
669.1780,97.837
670.1423,98.2797
671.1065,98.7794
672.0707,99.1264
673.0350,99.2788
673.9992,99.269
674.9634,99.1582
675.9277,99.0194
676.8919,98.915
677.8561,98.8751
678.8204,98.895
679.7846,98.9524
680.7488,99.0253
681.7131,99.0985
682.6773,99.1631
683.6415,99.214
684.6058,99.249
685.5700,99.2685
686.5342,99.2731
687.4985,99.2613
688.4627,99.2276
689.4269,99.1617
690.3912,99.0539
691.3554,98.9141
692.3196,98.7969
693.2839,98.7943
694.2481,98.9592
695.2123,99.2443
696.1766,99.5495
697.1408,99.7942
698.1050,99.9388
699.0693,99.981
700.0335,99.9488
700.9977,99.8862
701.9620,99.8361
702.9262,99.8242
703.8904,99.8563
704.8547,99.922
705.8189,100.003
706.7831,100.078
707.7474,100.131
708.7116,100.152
709.6758,100.141
710.6401,100.111
711.6043,100.075
712.5685,100.037
713.5328,99.9893
714.4970,99.908
715.4612,99.9734
716.4255,99.7488
717.3897,99.4773
718.3539,99.208
719.3182,99.0005
720.2824,98.9419
721.2466,99.0304
722.2109,99.1805
723.1751,99.3338
724.1393,99.4428
725.1036,99.4862
726.0678,99.4691
727.0320,99.4141
727.9963,99.3507
728.9605,99.3055
729.9247,99.2965
730.8890,99.3302
731.8532,99.4024
732.8174,99.5002
733.7817,99.6059
734.7459,99.7016
735.7101,99.7736
736.6744,99.8151
737.6386,99.8275
738.6028,99.8189
739.5671,99.8022
740.5313,99.79
741.4955,99.7905
742.4598,99.8044
743.4240,99.8252
744.3882,99.8436
745.3525,99.852
746.3167,99.8476
747.2809,99.8317
748.2452,99.8074
749.2094,99.7768
750.1736,99.7402
751.1379,99.697
752.1021,99.6476
753.0663,99.5954
754.0306,99.5466
754.9948,99.5093
755.9590,99.4896
756.9233,99.4878
757.8875,99.4962
758.8517,99.501
759.8160,99.4885
760.7802,99.4529
761.7444,99.3991
762.7087,99.3402
763.6729,99.29
764.6371,99.2564
765.6014,99.24
766.5656,99.2374
767.5298,99.2457
768.4941,99.2637
769.4583,99.289
770.4225,99.3149
771.3868,99.3311
772.3510,99.3283
773.3152,99.3046
774.2795,99.2673
775.2437,99.2293
776.2079,99.2024
777.1722,99.1917
778.1364,99.1943
779.1006,99.203
780.0649,99.2107
781.0291,99.2131
781.9933,99.2093
782.9576,99.1999
783.9218,99.1843
784.8860,99.1598
785.8503,99.1222
786.8145,99.0679
787.7787,98.997
788.7430,98.9152
789.7072,98.8314
790.6714,98.7528
791.6357,98.6794
792.5999,98.6016
793.5641,98.5036
794.5284,98.3712
795.4926,98.1984
796.4568,97.9906
797.4211,97.7611
798.3853,97.526
799.3495,97.2987
800.3138,97.0881
801.2780,96.9005
802.2422,96.7405
803.2065,96.6115
804.1707,96.5139
805.1349,96.4442
806.0992,96.3953
807.0634,96.3593
808.0276,96.3305
808.9919,96.3068
809.9561,96.2882
810.9203,96.2742
811.8846,96.2607
812.8488,96.2405
813.8130,96.2059
814.7773,96.1535
815.7415,96.0858
816.7057,96.0104
817.6700,95.935
818.6342,95.864
819.5984,95.7972
820.5627,95.733
821.5269,95.6717
822.4911,95.6175
823.4554,95.576
824.4196,95.5502
825.3839,95.538
826.3481,95.5328
827.3123,95.5271
828.2766,95.5163
829.2408,95.5003
830.2050,95.4825
831.1693,95.4688
832.1335,95.4668
833.0977,95.4851
834.0620,95.5318
835.0262,95.6115
835.9904,95.7228
836.9547,95.8571
837.9189,96.0022
838.8831,96.1462
839.8474,96.2816
840.8116,96.4046
841.7758,96.5138
842.7401,96.6071
843.7043,96.6818
844.6685,96.7362
845.6328,96.7724
846.5970,96.7962
847.5612,96.8151
848.5255,96.8347
849.4897,96.857
850.4539,96.8804
851.4182,96.9023
852.3824,96.9207
853.3466,96.935
854.3109,96.9443
855.2751,96.9472
856.2393,96.942
857.2036,96.9288
858.1678,96.9106
859.1320,96.8924
860.0963,96.8787
861.0605,96.8701
862.0247,96.8616
862.9890,96.8439
863.9532,96.8056
864.9174,96.7347
865.8817,96.6193
866.8459,96.4475
867.8101,96.2083
868.7744,95.8953
869.7386,95.5088
870.7028,95.0569
871.6671,94.5534
872.6313,94.0144
873.5955,93.4578
874.5598,92.9075
875.5240,92.3983
876.4882,91.9767
877.4525,91.6948
878.4167,91.5962
879.3809,91.7023
880.3452,92.0059
881.3094,92.4763
882.2736,93.0716
883.2379,93.7498
884.2021,94.4737
885.1663,95.2086
886.1306,95.9194
887.0948,96.5714
888.0590,97.1371
889.0233,97.6035
889.9875,97.9739
890.9517,98.263
891.9160,98.4865
892.8802,98.6545
893.8444,98.7698
894.8087,98.8321
895.7729,98.8432
896.7371,98.8087
897.7014,98.7361
898.6656,98.6324
899.6298,98.5019
900.5941,98.3479
901.5583,98.174
902.5225,97.9852
903.4868,97.7874
904.4510,97.5858
905.4152,97.3855
906.3795,97.1916
907.3437,97.0099
908.3079,96.8476
909.2722,96.7127
910.2364,96.614
911.2006,96.5611
912.1649,96.5632
913.1291,96.6274
914.0933,96.7558
915.0576,96.9442
916.0218,97.1816
916.9860,97.4542
917.9503,97.7486
918.9145,98.0552
919.8787,98.3682
920.8430,98.6848
921.8072,99.0025
922.7714,99.318
923.7357,99.6257
924.6999,99.9181
925.6641,100.186
926.6284,100.42
927.5926,100.611
928.5568,100.753
929.5211,100.845
930.4853,100.888
931.4495,100.89
932.4138,100.857
933.3780,100.83
934.3422,100.846
935.3065,100.85
936.2707,100.846
937.2349,100.834
938.1992,100.81
939.1634,100.771
940.1276,100.716
941.0919,100.649
942.0561,100.578
943.0203,100.511
943.9846,100.451
944.9488,100.392
945.9130,100.325
946.8773,100.239
947.8415,100.127
948.8057,99.9897
949.7700,99.8341
950.7342,99.6691
951.6984,99.5013
952.6627,99.3333
953.6269,99.1639
954.5911,98.99
955.5554,98.8091
956.5196,98.6195
957.4838,98.421
958.4481,98.2146
959.4123,98.0023
960.3765,97.7874
961.3408,97.5742
962.3050,97.3682
963.2692,97.1754
964.2335,97.0013
965.1977,96.8497
966.1619,96.7216
967.1262,96.6141
968.0904,96.5207
969.0546,96.4328
970.0189,96.3417
970.9831,96.2415
971.9473,96.1308
972.9116,96.0122
973.8758,95.8906
974.8400,95.7702
975.8043,95.6517
976.7685,95.531
977.7327,95.4003
978.6970,95.2514
979.6612,95.079
980.6254,94.8829
981.5897,94.6673
982.5539,94.4377
983.5181,94.1983
984.4824,93.9494
985.4466,93.6889
986.4108,93.4139
987.3751,93.1229
988.3393,92.8164
989.3035,92.4968
990.2678,92.1663
991.2320,91.8258
992.1962,91.4737
993.1605,91.1051
994.1247,90.7122
995.0889,90.2865
996.0532,89.8215
997.0174,89.315
997.9816,88.7701
998.9459,88.1932
999.9101,87.5903
1000.8743,86.9648
1001.8386,86.3161
1002.8028,85.6408
1003.7670,84.9354
1004.7313,84.1983
1005.6955,83.4308
1006.6597,82.6383
1007.6240,81.8293
1008.5882,81.0157
1009.5524,80.2108
1010.5167,79.4278
1011.4809,78.6779
1012.4451,77.9681
1013.4094,77.3003
1014.3736,76.6708
1015.3378,76.0715
1016.3021,75.4939
1017.2663,74.9328
1018.2305,74.3883
1019.1948,73.8627
1020.1590,73.3531
1021.1232,72.8446
1022.0875,72.3119
1023.0517,71.7318
1024.0160,71.1009
1024.9802,70.4467
1025.9445,69.8224
1026.9087,69.2847
1027.8729,68.8663
1028.8372,68.5601
1029.8014,68.3247
1030.7656,68.1072
1031.7299,67.8692
1032.6941,67.6013
1033.6583,67.3199
1034.6226,67.0524
1035.5868,66.8224
1036.5510,66.6425
1037.5153,66.5159
1038.4795,66.4408
1039.4437,66.414
1040.4080,66.4319
1041.3722,66.4911
1042.3364,66.5906
1043.3007,66.7351
1044.2649,66.9363
1045.2291,67.2117
1046.1934,67.5795
1047.1576,68.0553
1048.1218,68.648
1049.0861,69.3581
1050.0503,70.1752
1051.0145,71.0749
1051.9788,72.0191
1052.9430,72.9613
1053.9072,73.8587
1054.8715,74.6859
1055.8357,75.4416
1056.7999,76.1415
1057.7642,76.7981
1058.7284,77.3985
1059.6926,77.8939
1060.6569,78.2138
1061.6211,78.2999
1062.5853,78.1432
1063.5496,77.8012
1064.5138,77.3814
1065.4780,76.9966
1066.4423,76.7152
1067.4065,76.5331
1068.3707,76.3843
1069.3350,76.1802
1070.2992,75.8562
1071.2634,75.3987
1072.2277,74.8428
1073.1919,74.2475
1074.1561,73.6677
1075.1204,73.1387
1076.0846,72.6756
1077.0488,72.2823
1078.0131,71.9603
1078.9773,71.7098
1079.9415,71.5283
1080.9058,71.4081
1081.8700,71.3374
1082.8342,71.3043
1083.7985,71.2999
1084.7627,71.3208
1085.7269,71.3692
1086.6912,71.4521
1087.6554,71.5785
1088.6196,71.756
1089.5839,71.9853
1090.5481,72.2562
1091.5123,72.5467
1092.4766,72.8281
1093.4408,73.0725
1094.4050,73.2604
1095.3693,73.3835
1096.3335,73.4429
1097.2977,73.4428
1098.2620,73.3848
1099.2262,73.2647
1100.1904,73.0738
1101.1547,72.8038
1102.1189,72.4522
1103.0831,72.025
1104.0474,71.5377
1105.0116,71.0125
1105.9758,70.4756
1106.9401,69.9544
1107.9043,69.4761
1108.8685,69.0676
1109.8328,68.755
1110.7970,68.5618
1111.7612,68.5075
1112.7255,68.6055
1113.6897,68.8614
1114.6539,69.274
1115.6182,69.8359
1116.5824,70.5363
1117.5466,71.3631
1118.5109,72.3047
1119.4751,73.3506
1120.4393,74.4905
1121.4036,75.7142
1122.3678,77.0108
1123.3320,78.3699
1124.2963,79.7822
1125.2605,81.2401
1126.2247,82.7365
1127.1890,84.2636
1128.1532,85.8103
1129.1174,87.3615
1130.0817,88.8969
1131.0459,90.3927
1132.0101,91.8216
1132.9744,93.1549
1133.9386,94.3644
1134.9028,95.4253
1135.8671,96.3198
1136.8313,97.0396
1137.7955,97.5873
1138.7598,97.9754
1139.7240,98.2226
1140.6882,98.3503
1141.6525,98.3794
1142.6167,98.3286
1143.5809,98.2143
1144.5452,98.0517
1145.5094,97.8567
1146.4736,97.6462
1147.4379,97.4378
1148.4021,97.2486
1149.3663,97.0931
1150.3306,96.9825
1151.2948,96.9238
1152.2590,96.9203
1153.2233,96.9723
1154.1875,97.0787
1155.1517,97.2371
1156.1160,97.4442
1157.0802,97.6949
1158.0444,97.9815
1159.0087,98.2924
1159.9729,98.6122
1160.9371,98.923
1161.9014,99.2067
1162.8656,99.4486
1163.8298,99.6261
1164.7941,99.6113
1165.7583,99.5456
1166.7225,99.4347
1167.6868,99.2843
1168.6510,99.0989
1169.6152,98.8805
1170.5795,98.6292
1171.5437,98.3431
1172.5079,98.0182
1173.4722,97.649
1174.4364,97.2298
1175.4006,96.7559
1176.3649,96.2259
1177.3291,95.6434
1178.2933,95.0166
1179.2576,94.3584
1180.2218,93.6833
1181.1860,93.0054
1182.1503,92.3362
1183.1145,91.6835
1184.0787,91.0519
1185.0430,90.4431
1186.0072,89.8571
1186.9714,89.2926
1187.9357,88.747
1188.8999,88.2166
1189.8641,87.6968
1190.8284,87.1829
1191.7926,86.6706
1192.7568,86.1564
1193.7211,85.6374
1194.6853,85.1109
1195.6495,84.5745
1196.6138,84.0256
1197.5780,83.4615
1198.5422,82.8809
1199.5065,82.3393
1200.4707,81.7241
1201.4349,81.1035
1202.3992,80.4867
1203.3634,79.8832
1204.3276,79.3022
1205.2919,78.751
1206.2561,78.2366
1207.2203,77.7656
1208.1846,77.3455
1209.1488,76.9843
1210.1130,76.6896
1211.0773,76.4673
1212.0415,76.3201
1213.0057,76.2469
1213.9700,76.2444
1214.9342,76.3084
1215.8984,76.4356
1216.8627,76.6234
1217.8269,76.869
1218.7911,77.1663
1219.7554,77.5064
1220.7196,77.8788
1221.6838,78.2732
1222.6481,78.6818
1223.6123,79.0982
1224.5765,79.5165
1225.5408,79.9296
1226.5050,80.3297
1227.4692,80.7085
1228.4335,81.0599
1229.3977,81.381
1230.3619,81.6727
1231.3262,81.9394
1232.2904,82.1881
1233.2546,82.425
1234.2189,82.6513
1235.1831,82.8597
1236.1473,83.0363
1237.1116,83.1675
1238.0758,83.2509
1239.0400,83.3031
1240.0043,83.3572
1240.9685,83.4498
1241.9327,83.6032
1242.8970,83.813
1243.8612,84.0499
1244.8254,84.2746
1245.7897,84.457
1246.7539,84.5887
1247.7181,84.6818
1248.6824,84.7568
1249.6466,84.829
1250.6108,84.9013
1251.5751,84.9654
1252.5393,85.0083
1253.5035,85.0194
1254.4678,84.9934
1255.4320,84.9305
1256.3962,84.8351
1257.3605,84.7141
1258.3247,84.5767
1259.2889,84.4328
1260.2532,84.2909
1261.2174,84.1559
1262.1816,84.0292
1263.1459,83.9107
1264.1101,83.8023
1265.0743,83.7088
1266.0386,83.6382
1267.0028,83.5992
1267.9670,83.6
1268.9313,83.6464
1269.8955,83.7417
1270.8597,83.8858
1271.8240,84.0752
1272.7882,84.3024
1273.7524,84.5584
1274.7167,84.8342
1275.6809,85.1228
1276.6451,85.4203
1277.6094,85.7247
1278.5736,86.0349
1279.5378,86.3482
1280.5021,86.6598
1281.4663,86.9623
1282.4305,87.2477
1283.3948,87.5094
1284.3590,87.7451
1285.3232,87.9568
1286.2875,88.1496
1287.2517,88.3284
1288.2159,88.4945
1289.1802,88.6439
1290.1444,88.7698
1291.1086,88.8657
1292.0729,88.9291
1293.0371,88.9622
1294.0013,88.9706
1294.9656,88.9599
1295.9298,88.9341
1296.8940,88.895
1297.8583,88.8427
1298.8225,88.778
1299.7867,88.702
1300.7510,88.6166
1301.7152,88.5229
1302.6794,88.4222
1303.6437,88.3166
1304.6079,88.2077
1305.5721,88.0966
1306.5364,87.9823
1307.5006,87.8617
1308.4648,87.7315
1309.4291,87.591
1310.3933,87.4439
1311.3575,87.2976
1312.3218,87.1582
1313.2860,87.0273
1314.2502,86.8999
1315.2145,86.7698
1316.1787,86.6346
1317.1429,86.5003
1318.1072,86.3786
1319.0714,86.2805
1320.0356,86.2088
1320.9999,86.1579
1321.9641,86.1201
1322.9283,86.0934
1323.8926,86.0842
1324.8568,86.1052
1325.8210,86.1689
1326.7853,86.2829
1327.7495,86.4483
1328.7137,86.6618
1329.6780,86.919
1330.6422,87.2138
1331.6064,87.5354
1332.5707,87.8658
1333.5349,88.1827
1334.4991,88.4686
1335.4634,88.7216
1336.4276,88.9642
1337.3918,89.2434
1338.3561,89.6124
1339.3203,90.0915
1340.2845,90.6401
1341.2488,91.1798
1342.2130,91.6479
1343.1772,92.0243
1344.1415,92.3209
1345.1057,92.561
1346.0699,92.7658
1347.0342,92.9503
1347.9984,93.1217
1348.9626,93.279
1349.9269,93.4157
1350.8911,93.524
1351.8553,93.6005
1352.8196,93.6486
1353.7838,93.6764
1354.7480,93.6899
1355.7123,93.6866
1356.6765,93.6551
1357.6407,93.5828
1358.6050,93.4622
1359.5692,93.2961
1360.5334,93.1026
1361.4977,92.9136
1362.4619,92.7565
1363.4261,92.6269
1364.3904,92.493
1365.3546,92.3288
1366.3188,92.1333
1367.2831,91.9238
1368.2473,91.7223
1369.2115,91.5442
1370.1758,91.3946
1371.1400,91.2747
1372.1042,91.1925
1373.0685,91.169
1374.0327,91.2273
1374.9969,91.3669
1375.9612,91.5557
1376.9254,91.7559
1377.8896,91.9532
1378.8539,92.1554
1379.8181,92.3712
1380.7823,92.593
1381.7466,92.8006
1382.7108,92.9791
1383.6750,93.1357
1384.6393,93.2992
1385.6035,93.5049
1386.5677,93.7607
1387.5320,94.0139
1388.4962,94.1686
1389.4604,94.16
1390.4247,93.9969
1391.3889,93.7398
1392.3531,93.4648
1393.3174,93.2497
1394.2816,93.162
1395.2458,93.2279
1396.2101,93.4033
1397.1743,93.5918
1398.1385,93.7026
1399.1028,93.6919
1400.0670,93.5623
1401.0313,93.3419
1401.9955,93.0632
1402.9597,92.7523
1403.9240,92.4266
1404.8882,92.0959
1405.8524,91.7608
1406.8167,91.4117
1407.7809,91.0355
1408.7451,90.6212
1409.7094,90.1615
1410.6736,89.6543
1411.6378,89.1071
1412.6021,88.5385
1413.5663,87.9694
1414.5305,87.4094
1415.4948,86.8469
1416.4590,86.2573
1417.4232,85.6366
1418.3875,85.0308
1419.3517,84.498
1420.3159,84.0485
1421.2802,83.6663
1422.2444,83.3591
1423.2086,83.154
1424.1729,83.0674
1425.1371,83.092
1426.1013,83.2096
1427.0656,83.4128
1428.0298,83.7128
1428.9940,84.1184
1429.9583,84.6044
1430.9225,85.1075
1431.8867,85.5694
1432.8510,85.9738
1433.8152,86.3374
1434.7794,86.6716
1435.7437,86.9494
1436.7079,87.0925
1437.6721,87.0062
1438.6364,86.6558
1439.6006,86.0903
1440.5648,85.3868
1441.5291,84.601
1442.4933,83.7629
1443.4575,82.8904
1444.4218,81.9988
1445.3860,81.1017
1446.3502,80.2149
1447.3145,79.366
1448.2787,78.5954
1449.2429,77.9381
1450.2072,77.4059
1451.1714,76.9934
1452.1356,76.6916
1453.0999,76.4848
1454.0641,76.3387
1455.0283,76.2139
1455.9926,76.1413
1456.9568,76.2586
1457.9210,76.5561
1458.8853,76.7828
1459.8495,76.8298
1460.8137,76.803
1461.7780,76.8533
1462.7422,77.1112
1463.7064,77.6829
1464.6707,78.5927
1465.6349,79.6982
1466.5991,80.7719
1467.5634,81.6991
1468.5276,82.5234
1469.4918,83.3513
1470.4561,84.2823
1471.4203,85.394
1472.3845,86.711
1473.3488,88.1063
1474.3130,89.3163
1475.2772,90.1741
1476.2415,90.7055
1477.2057,91.0092
1478.1699,91.1607
1479.1342,91.1993
1480.0984,91.1444
1481.0626,91.0067
1482.0269,90.7914
1482.9911,90.5014
1483.9553,90.139
1484.9196,89.7029
1485.8838,89.1788
1486.8480,88.5477
1487.8123,87.8331
1488.7765,87.1502
1489.7407,86.6245
1490.7050,86.2404
1491.6692,85.8907
1492.6334,85.5098
1493.5977,85.0792
1494.5619,84.5826
1495.5261,84.0033
1496.4904,83.3695
1497.4546,82.7741
1498.4188,82.2883
1499.3831,81.8893
1500.3473,81.5348
1501.3115,81.2329
1502.2758,81.011
1503.2400,80.853
1504.2042,80.6448
1505.1685,80.1632
1506.1327,79.2513
1507.0969,78.21
1508.0612,77.5429
1509.0254,77.1961
1509.9896,76.9085
1510.9539,76.6105
1511.9181,76.3417
1512.8823,76.17
1513.8466,76.1815
1514.8108,76.4673
1515.7750,77.0747
1516.7393,77.9693
1517.7035,79.0834
1518.6677,80.4235
1519.6320,82.0959
1520.5962,84.1645
1521.5604,86.4557
1522.5247,88.6121
1523.4889,90.4042
1524.4531,91.8845
1525.4174,93.2293
1526.3816,94.5199
1527.3458,95.6877
1528.3101,96.626
1529.2743,97.3067
1530.2385,97.7936
1531.2028,98.19
1532.1670,98.582
1533.1312,98.9878
1534.0955,99.3456
1535.0597,99.5923
1536.0239,99.7346
1536.9882,99.801
1537.9524,99.7492
1538.9166,99.4659
1539.8809,98.9822
1540.8451,98.6928
1541.8093,98.8537
1542.7736,99.184
1543.7378,99.4241
1544.7020,99.5386
1545.6663,99.5528
1546.6305,99.4861
1547.5947,99.3602
1548.5590,99.2047
1549.5232,99.0438
1550.4874,98.9004
1551.4517,98.7422
1552.4159,98.5611
1553.3801,98.3773
1554.3444,98.2309
1555.3086,98.1449
1556.2728,98.0974
1557.2371,98.0788
1558.2013,98.2077
1559.1655,98.4636
1560.1298,98.4288
1561.0940,97.9529
1562.0582,97.2739
1563.0225,96.6269
1563.9867,96.1143
1564.9509,95.739
1565.9152,95.4494
1566.8794,95.1721
1567.8436,94.8468
1568.8079,94.4575
1569.7721,94.0305
1570.7363,93.6021
1571.7006,93.1959
1572.6648,92.8094
1573.6290,92.3935
1574.5933,91.8632
1575.5575,91.1803
1576.5217,90.4336
1577.4860,89.7444
1578.4502,89.1278
1579.4144,88.5386
1580.3787,87.9465
1581.3429,87.3374
1582.3071,86.7071
1583.2714,86.065
1584.2356,85.4306
1585.1998,84.8176
1586.1641,84.2276
1587.1283,83.6596
1588.0925,83.1191
1589.0568,82.6172
1590.0210,82.1624
1590.9852,81.7548
1591.9495,81.3908
1592.9137,81.0713
1593.8779,80.8031
1594.8422,80.591
1595.8064,80.428
1596.7706,80.295
1597.7349,80.1715
1598.6991,80.0467
1599.6633,79.9242
1600.6276,79.8193
1601.5918,79.7509
1602.5560,79.7314
1603.5203,79.7586
1604.4845,79.8196
1605.4487,79.9031
1606.4130,80.0123
1607.3772,80.1661
1608.3414,80.3844
1609.3057,80.6626
1610.2699,80.9654
1611.2341,81.2566
1612.1984,81.5328
1613.1626,81.8271
1614.1268,82.1986
1615.0911,82.7197
1616.0553,83.4193
1617.0195,84.1788
1617.9838,84.7902
1618.9480,85.1768
1619.9122,85.4351
1620.8765,85.7023
1621.8407,86.0608
1622.8049,86.5111
1623.7692,86.9829
1624.7334,87.3904
1625.6976,87.7022
1626.6619,87.9491
1627.6261,88.1696
1628.5903,88.369
1629.5546,88.5331
1630.5188,88.6638
1631.4830,88.7852
1632.4473,88.9095
1633.4115,89.0087
1634.3757,89.0459
1635.3400,89.0603
1636.3042,89.1291
1637.2684,89.2055
1638.2327,89.1954
1639.1969,89.1043
1640.1611,88.9949
1641.1254,88.9165
1642.0896,88.8821
1643.0538,88.8627
1644.0181,88.787
1644.9823,88.5815
1645.9465,88.2707
1646.9108,88.0037
1647.8750,87.896
1648.8392,87.9538
1649.8035,88.1512
1650.7677,88.4331
1651.7319,88.6896
1652.6962,88.8438
1653.6604,88.9067
1654.6246,88.7913
1655.5889,88.4463
1656.5531,88.0238
1657.5173,87.6884
1658.4816,87.5008
1659.4458,87.4337
1660.4100,87.4251
1661.3743,87.4305
1662.3385,87.4387
1663.3027,87.4421
1664.2670,87.4271
1665.2312,87.3941
1666.1954,87.3495
1667.1597,87.2864
1668.1239,87.1977
1669.0881,87.1112
1670.0524,87.0795
1671.0166,87.1173
1671.9808,87.2011
1672.9451,87.3144
1673.9093,87.4443
1674.8735,87.5521
1675.8378,87.5753
1676.8020,87.4734
1677.7662,87.2764
1678.7305,87.0741
1679.6947,86.9557
1680.6589,86.958
1681.6232,87.0569
1682.5874,87.2069
1683.5516,87.3878
1684.5159,87.5407
1685.4801,87.541
1686.4443,87.3666
1687.4086,87.1267
1688.3728,86.9354
1689.3370,86.8458
1690.3013,86.8549
1691.2655,86.9273
1692.2297,87.012
1693.1940,87.0511
1694.1582,86.9919
1695.1224,86.8179
1696.0867,86.5887
1697.0509,86.4389
1698.0151,86.4866
1698.9794,86.7001
1699.9436,86.8876
1700.9078,86.8667
1701.8721,86.6167
1702.8363,86.2559
1703.8005,85.932
1704.7648,85.744
1705.7290,85.7136
1706.6932,85.7885
1707.6575,85.882
1708.6217,85.9343
1709.5859,85.9419
1710.5502,85.9348
1711.5144,85.9398
1712.4786,85.9618
1713.4429,85.9903
1714.4071,86.0333
1715.3713,86.1723
1716.3356,86.5588
1717.2998,87.2092
1718.2640,87.8586
1719.2283,88.2617
1720.1925,88.4348
1721.1567,88.5304
1722.1210,88.6742
1723.0852,88.9118
1724.0494,89.2188
1725.0137,89.5353
1725.9779,89.806
1726.9421,90.0093
1727.9064,90.162
1728.8706,90.3035
1729.8348,90.476
1730.7991,90.7161
1731.7633,91.0607
1732.7275,91.5376
1733.6918,92.0919
1734.6560,92.5487
1735.6202,92.782
1736.5845,92.8473
1737.5487,92.8877
1738.5129,93.0058
1739.4772,93.22
1740.4414,93.4814
1741.4056,93.7182
1742.3699,93.8857
1743.3341,93.9898
1744.2983,94.068
1745.2626,94.1562
1746.2268,94.277
1747.1910,94.4555
1748.1553,94.7368
1749.1195,95.1601
1750.0837,95.6821
1751.0480,96.1652
1752.0122,96.4934
1752.9764,96.6615
1753.9407,96.7389
1754.9049,96.798
1755.8691,96.8776
1756.8334,96.982
1757.7976,97.0992
1758.7618,97.2209
1759.7261,97.3522
1760.6903,97.5032
1761.6545,97.6716
1762.6188,97.8353
1763.5830,97.9678
1764.5472,98.0622
1765.5115,98.1323
1766.4757,98.1937
1767.4399,98.2483
1768.4042,98.2856
1769.3684,98.299
1770.3326,98.3101
1771.2969,98.3707
1772.2611,98.513
1773.2253,98.6907
1774.1896,98.8182
1775.1538,98.8638
1776.1180,98.862
1777.0823,98.8624
1778.0465,98.8916
1779.0107,98.9506
1779.9750,99.0306
1780.9392,99.125
1781.9034,99.2313
1782.8677,99.3443
1783.8319,99.4495
1784.7961,99.5249
1785.7604,99.5552
1786.7246,99.546
1787.6888,99.5207
1788.6531,99.5002
1789.6173,99.4865
1790.5815,99.4719
1791.5458,99.4631
1792.5100,99.4727
1793.4742,99.4832
1794.4385,99.4653
1795.4027,99.4251
1796.3669,99.3959
1797.3312,99.401
1798.2954,99.4407
1799.2596,99.5025
1800.2239,99.5754
1801.1881,99.6497
1802.1523,99.713
1803.1166,99.7542
1804.0808,99.7702
1805.0450,99.7645
1806.0093,99.7412
1806.9735,99.7041
1807.9377,99.6595
1808.9020,99.6212
1809.8662,99.6086
1810.8304,99.6331
1811.7947,99.6874
1812.7589,99.7506
1813.7231,99.8055
1814.6874,99.8448
1815.6516,99.8682
1816.6158,99.8764
1817.5801,99.8915
1818.5443,99.913
1819.5085,99.9262
1820.4728,99.9379
1821.4370,99.9529
1822.4012,99.9707
1823.3655,99.9855
1824.3297,99.9892
1825.2939,99.9747
1826.2582,99.9421
1827.2224,99.9041
1828.1866,99.8864
1829.1509,99.9162
1830.1151,99.9962
1831.0793,100.091
1832.0436,100.155
1833.0078,100.174
1833.9720,100.165
1834.9363,100.151
1835.9005,100.143
1836.8647,100.143
1837.8290,100.146
1838.7932,100.155
1839.7574,100.179
1840.7217,100.217
1841.6859,100.257
1842.6501,100.278
1843.6144,100.274
1844.5786,100.26
1845.5428,100.243
1846.5071,100.226
1847.4713,100.216
1848.4355,100.228
1849.3998,100.265
1850.3640,100.314
1851.3282,100.358
1852.2925,100.383
1853.2567,100.389
1854.2209,100.384
1855.1852,100.372
1856.1494,100.357
1857.1136,100.34
1858.0779,100.325
1859.0421,100.319
1860.0063,100.323
1860.9706,100.33
1861.9348,100.325
1862.8990,100.296
1863.8633,100.238
1864.8275,100.154
1865.7917,100.057
1866.7560,99.9762
1867.7202,99.9564
1868.6844,100.028
1869.6487,100.162
1870.6129,100.287
1871.5771,100.362
1872.5414,100.391
1873.5056,100.399
1874.4698,100.404
1875.4341,100.41
1876.3983,100.413
1877.3625,100.414
1878.3268,100.413
1879.2910,100.41
1880.2552,100.407
1881.2195,100.401
1882.1837,100.39
1883.1479,100.371
1884.1122,100.346
1885.0764,100.32
1886.0406,100.299
1887.0049,100.286
1887.9691,100.285
1888.9333,100.294
1889.8976,100.306
1890.8618,100.31
1891.8260,100.299
1892.7903,100.277
1893.7545,100.255
1894.7188,100.248
1895.6830,100.262
1896.6472,100.292
1897.6115,100.324
1898.5757,100.344
1899.5399,100.348
1900.5042,100.338
1901.4684,100.321
1902.4326,100.302
1903.3969,100.28
1904.3611,100.251
1905.3253,100.209
1906.2896,100.158
1907.2538,100.107
1908.2180,100.073
1909.1823,100.07
1910.1465,100.094
1911.1107,100.13
1912.0750,100.161
1913.0392,100.178
1914.0034,100.185
1914.9677,100.186
1915.9319,100.184
1916.8961,100.174
1917.8604,100.15
1918.8246,100.104
1919.7888,100.04
1920.7531,99.9753
1921.7173,99.9338
1922.6815,99.934
1923.6458,99.9757
1924.6100,100.04
1925.5742,100.101
1926.5385,100.143
1927.5027,100.162
1928.4669,100.166
1929.4312,100.163
1930.3954,100.159
1931.3596,100.158
1932.3239,100.16
1933.2881,100.166
1934.2523,100.176
1935.2166,100.186
1936.1808,100.193
1937.1450,100.19
1938.1093,100.174
1939.0735,100.145
1940.0377,100.106
1941.0020,100.064
1941.9662,100.033
1942.9304,100.023
1943.8947,100.036
1944.8589,100.062
1945.8231,100.096
1946.7874,100.132
1947.7516,100.169
1948.7158,100.201
1949.6801,100.224
1950.6443,100.235
1951.6085,100.235
1952.5728,100.23
1953.5370,100.226
1954.5012,100.228
1955.4655,100.236
1956.4297,100.248
1957.3939,100.261
1958.3582,100.272
1959.3224,100.282
1960.2866,100.288
1961.2509,100.287
1962.2151,100.274
1963.1793,100.251
1964.1436,100.221
1965.1078,100.195
1966.0720,100.187
1967.0363,100.205
1968.0005,100.246
1968.9647,100.297
1969.9290,100.341
1970.8932,100.372
1971.8574,100.387
1972.8217,100.391
1973.7859,100.391
1974.7501,100.391
1975.7144,100.392
1976.6786,100.394
1977.6428,100.396
1978.6071,100.397
1979.5713,100.397
1980.5355,100.399
1981.4998,100.401
1982.4640,100.402
1983.4282,100.401
1984.3925,100.393
1985.3567,100.379
1986.3209,100.359
1987.2852,100.334
1988.2494,100.308
1989.2136,100.286
1990.1779,100.273
1991.1421,100.275
1992.1063,100.294
1993.0706,100.326
1994.0348,100.359
1994.9990,100.386
1995.9633,100.402
1996.9275,100.408
1997.8917,100.408
1998.8560,100.406
1999.8202,100.407
2000.7844,100.41
2001.7487,100.413
2002.7129,100.414
2003.6771,100.41
2004.6414,100.4
2005.6056,100.389
2006.5698,100.379
2007.5341,100.373
2008.4983,100.374
2009.4625,100.379
2010.4268,100.384
2011.3910,100.383
2012.3552,100.371
2013.3195,100.348
2014.2837,100.317
2015.2479,100.287
2016.2122,100.269
2017.1764,100.267
2018.1406,100.282
2019.1049,100.305
2020.0691,100.328
2021.0333,100.343
2021.9976,100.351
2022.9618,100.352
2023.9260,100.351
2024.8903,100.351
2025.8545,100.352
2026.8187,100.353
2027.7830,100.353
2028.7472,100.353
2029.7114,100.352
2030.6757,100.35
2031.6399,100.346
2032.6041,100.34
2033.5684,100.332
2034.5326,100.324
2035.4968,100.317
2036.4611,100.31
2037.4253,100.301
2038.3895,100.288
2039.3538,100.273
2040.3180,100.258
2041.2822,100.248
2042.2465,100.245
2043.2107,100.25
2044.1749,100.259
2045.1392,100.269
2046.1034,100.275
2047.0676,100.276
2048.0320,100.273
2048.9961,100.267
2049.9604,100.26
2050.9246,100.254
2051.8889,100.249
2052.8530,100.246
2053.8174,100.243
2054.7815,100.24
2055.7458,100.237
2056.7100,100.232
2057.6743,100.227
2058.6384,100.221
2059.6028,100.211
2060.5669,100.199
2061.5313,100.183
2062.4954,100.167
2063.4597,100.155
2064.4238,100.152
2065.3882,100.159
2066.3523,100.174
2067.3167,100.191
2068.2808,100.206
2069.2451,100.216
2070.2092,100.222
2071.1736,100.225
2072.1377,100.226
2073.1021,100.227
2074.0662,100.226
2075.0305,100.223
2075.9946,100.221
2076.9590,100.219
2077.9231,100.219
2078.8875,100.22
2079.8516,100.222
2080.8159,100.222
2081.7800,100.22
2082.7444,100.215
2083.7085,100.209
2084.6729,100.203
2085.6370,100.198
2086.6013,100.193
2087.5654,100.19
2088.5298,100.188
2089.4939,100.187
2090.4583,100.187
2091.4224,100.188
2092.3867,100.19
2093.3508,100.192
2094.3152,100.195
2095.2793,100.197
2096.2437,100.199
2097.2078,100.201
2098.1721,100.201
2099.1362,100.2
2100.1006,100.197
2101.0647,100.193
2102.0291,100.188
2102.9932,100.183
2103.9575,100.178
2104.9216,100.174
2105.8860,100.172
2106.8501,100.17
2107.8145,100.167
2108.7786,100.163
2109.7429,100.155
2110.7070,100.146
2111.6714,100.135
2112.6355,100.125
2113.5999,100.118
2114.5640,100.116
2115.5283,100.12
2116.4924,100.126
2117.4568,100.132
2118.4209,100.135
2119.3853,100.135
2120.3494,100.132
2121.3137,100.13
2122.2778,100.129
2123.2422,100.128
2124.2063,100.126
2125.1707,100.122
2126.1348,100.117
2127.0991,100.114
2128.0632,100.115
2129.0276,100.12
2129.9917,100.129
2130.9561,100.135
2131.9202,100.135
2132.8845,100.128
2133.8486,100.117
2134.8130,100.106
2135.7771,100.101
2136.7415,100.106
2137.7056,100.118
2138.6699,100.134
2139.6340,100.149
2140.5984,100.158
2141.5625,100.16
2142.5269,100.158
2143.4910,100.156
2144.4553,100.157
2145.4194,100.161
2146.3838,100.169
2147.3479,100.177
2148.3123,100.183
2149.2764,100.186
2150.2407,100.185
2151.2048,100.182
2152.1692,100.178
2153.1333,100.177
2154.0977,100.179
2155.0618,100.183
2156.0261,100.188
2156.9902,100.193
2157.9546,100.196
2158.9187,100.198
2159.8831,100.201
2160.8472,100.206
2161.8115,100.213
2162.7756,100.222
2163.7400,100.231
2164.7041,100.239
2165.6685,100.243
2166.6326,100.243
2167.5969,100.242
2168.5610,100.24
2169.5254,100.239
2170.4895,100.241
2171.4539,100.244
2172.4180,100.248
2173.3823,100.25
2174.3464,100.251
2175.3108,100.251
2176.2749,100.252
2177.2393,100.255
2178.2034,100.262
2179.1677,100.27
2180.1318,100.276
2181.0962,100.279
2182.0603,100.277
2183.0247,100.272
2183.9888,100.267
2184.9531,100.265
2185.9172,100.266
2186.8816,100.272
2187.8457,100.281
2188.8101,100.29
2189.7742,100.296
2190.7385,100.299
2191.7026,100.299
2192.6670,100.298
2193.6311,100.298
2194.5955,100.3
2195.5596,100.303
2196.5239,100.308
2197.4880,100.311
2198.4524,100.312
2199.4165,100.31
2200.3809,100.306
2201.3450,100.302
2202.3093,100.3
2203.2734,100.299
2204.2378,100.3
2205.2019,100.3
2206.1663,100.299
2207.1304,100.296
2208.0947,100.293
2209.0588,100.291
2210.0232,100.289
2210.9873,100.287
2211.9517,100.284
2212.9158,100.278
2213.8801,100.272
2214.8442,100.267
2215.8086,100.264
2216.7727,100.264
2217.7371,100.263
2218.7012,100.261
2219.6655,100.256
2220.6296,100.247
2221.5940,100.237
2222.5581,100.227
2223.5225,100.22
2224.4866,100.216
2225.4509,100.213
2226.4150,100.211
2227.3794,100.207
2228.3435,100.2
2229.3079,100.191
2230.2720,100.18
2231.2363,100.169
2232.2004,100.16
2233.1648,100.153
2234.1289,100.147
2235.0933,100.143
2236.0574,100.139
2237.0217,100.134
2237.9858,100.127
2238.9502,100.117
2239.9143,100.107
2240.8787,100.096
2241.8428,100.086
2242.8071,100.077
2243.7712,100.068
2244.7356,100.059
2245.6997,100.046
2246.6641,100.031
2247.6282,100.014
2248.5925,99.9972
2249.5566,99.981
2250.5210,99.9662
2251.4851,99.9522
2252.4495,99.9382
2253.4136,99.9238
2254.3779,99.9092
2255.3420,99.8952
2256.3064,99.8821
2257.2705,99.8704
2258.2349,99.8596
2259.1990,99.8495
2260.1633,99.8397
2261.1274,99.8301
2262.0918,99.821
2263.0559,99.8125
2264.0203,99.8052
2264.9844,99.7996
2265.9487,99.7956
2266.9128,99.7926
2267.8772,99.7891
2268.8413,99.7836
2269.8057,99.7756
2270.7698,99.7658
2271.7341,99.7563
2272.6982,99.7494
2273.6626,99.7467
2274.6267,99.7487
2275.5911,99.7552
2276.5552,99.7656
2277.5195,99.7795
2278.4836,99.7958
2279.4480,99.8126
2280.4121,99.8268
2281.3765,99.8344
2282.3406,99.8322
2283.3049,99.8185
2284.2690,99.7937
2285.2334,99.7603
2286.1975,99.7217
2287.1619,99.681
2288.1260,99.6393
2289.0903,99.5956
2290.0544,99.5484
2291.0188,99.4973
2291.9829,99.4454
2292.9473,99.3983
2293.9114,99.3623
2294.8757,99.3409
2295.8398,99.3338
2296.8042,99.3378
2297.7683,99.3503
2298.7327,99.372
2299.6968,99.407
2300.6611,99.459
2301.6252,99.5265
2302.5896,99.601
2303.5537,99.6681
2304.5181,99.7137
2305.4822,99.7311
2306.4465,99.7266
2307.4106,99.719
2308.3750,99.7328
2309.3391,99.7881
2310.3035,99.8899
2311.2676,100.026
2312.2319,100.172
2313.1960,100.304
2314.1604,100.411
2315.1245,100.499
2316.0889,100.584
2317.0530,100.685
2318.0173,100.809
2318.9814,100.943
2319.9458,101.049
2320.9099,101.079
2321.8743,100.99
2322.8384,100.776
2323.8027,100.478
2324.7668,100.173
2325.7312,99.9443
2326.6953,99.8466
2327.6597,99.8833
2328.6238,100.005
2329.5881,100.13
2330.5522,100.179
2331.5166,100.114
2332.4807,99.951
2333.4451,99.747
2334.4092,99.5627
2335.3735,99.4336
2336.3376,99.3586
2337.3020,99.3074
2338.2661,99.2401
2339.2305,99.1322
2340.1946,98.998
2341.1589,98.9065
2342.1230,98.9686
2343.0874,99.2496
2344.0515,99.6321
2345.0159,99.8445
2345.9800,99.7229
2346.9443,99.3621
2347.9084,98.9955
2348.8728,98.8158
2349.8369,98.8847
2350.8013,99.1248
2351.7654,99.3679
2352.7297,99.4555
2353.6938,99.352
2354.6582,99.1499
2355.6223,98.9396
2356.5867,98.7188
2357.5508,98.4561
2358.5151,98.1879
2359.4792,97.9939
2360.4436,97.9239
2361.4077,97.9725
2362.3721,98.1141
2363.3362,98.3432
2364.3005,98.6648
2365.2646,99.0648
2366.2290,99.5045
2367.1931,99.94
2368.1575,100.34
2369.1216,100.688
2370.0859,100.976
2371.0500,101.198
2372.0144,101.353
2372.9785,101.438
2373.9429,101.449
2374.9070,101.38
2375.8713,101.232
2376.8354,101.017
2377.7998,100.755
2378.7639,100.479
2379.7283,100.218
2380.6924,99.9957
2381.6567,99.8269
2382.6208,99.7148
2383.5852,99.6549
2384.5493,99.6365
2385.5137,99.6461
2386.4778,99.67
2387.4421,99.6964
2388.4063,99.7172
2389.3706,99.729
2390.3347,99.7328
2391.2991,99.732
2392.2632,99.7304
2393.2275,99.7302
2394.1917,99.732
2395.1560,99.7349
2396.1201,99.7383
2397.0845,99.7422
2398.0486,99.7468
2399.0129,99.7521
2399.9771,99.7569
2400.9414,99.7593
2401.9055,99.7581
2402.8699,99.7532
2403.8340,99.7466
2404.7983,99.7412
2405.7625,99.7391
2406.7268,99.7406
2407.6909,99.7443
2408.6553,99.7481
2409.6194,99.7506
2410.5837,99.7517
2411.5479,99.7526
2412.5122,99.755
2413.4763,99.7594
2414.4407,99.7652
2415.4048,99.771
2416.3691,99.776
2417.3333,99.7801
2418.2976,99.7842
2419.2617,99.7888
2420.2261,99.7935
2421.1902,99.7972
2422.1545,99.7989
2423.1187,99.7985
2424.0830,99.7978
2425.0471,99.7995
2426.0115,99.8055
2426.9756,99.8158
2427.9399,99.8288
2428.9041,99.8419
2429.8684,99.8531
2430.8325,99.8615
2431.7969,99.8674
2432.7610,99.8714
2433.7253,99.874
2434.6895,99.8754
2435.6538,99.8762
2436.6179,99.8776
2437.5823,99.8808
2438.5464,99.8867
2439.5107,99.8951
2440.4749,99.9049
2441.4392,99.9149
2442.4033,99.9241
2443.3677,99.932
2444.3318,99.938
2445.2961,99.9419
2446.2603,99.9431
2447.2246,99.9414
2448.1887,99.9376
2449.1531,99.933
2450.1172,99.9295
2451.0815,99.9285
2452.0457,99.931
2453.0100,99.9364
2453.9741,99.9433
2454.9385,99.9495
2455.9026,99.9525
2456.8669,99.9511
2457.8311,99.9455
2458.7954,99.9382
2459.7595,99.9325
2460.7239,99.9313
2461.6880,99.9355
2462.6523,99.9436
2463.6165,99.9521
2464.5808,99.9581
2465.5449,99.9598
2466.5093,99.9582
2467.4734,99.9552
2468.4377,99.9527
2469.4019,99.9514
2470.3662,99.9506
2471.3303,99.9497
2472.2947,99.9484
2473.2588,99.9473
2474.2231,99.9471
2475.1873,99.948
2476.1516,99.95
2477.1157,99.9524
2478.0801,99.9553
2479.0442,99.9588
2480.0085,99.963
2480.9727,99.9674
2481.9370,99.9706
2482.9011,99.9712
2483.8655,99.9689
2484.8296,99.9646
2485.7939,99.9607
2486.7581,99.9594
2487.7224,99.9623
2488.6865,99.9691
2489.6509,99.9782
2490.6150,99.9873
2491.5793,99.9947
2492.5435,99.9994
2493.5078,100.002
2494.4719,100.004
2495.4363,100.008
2496.4004,100.015
2497.3647,100.022
2498.3289,100.03
2499.2932,100.034
2500.2573,100.035
2501.2217,100.033
2502.1858,100.031
2503.1501,100.033
2504.1143,100.04
2505.0786,100.052
2506.0427,100.065
2507.0071,100.077
2507.9712,100.083
2508.9355,100.084
2509.8997,100.081
2510.8640,100.077
2511.8281,100.074
2512.7925,100.074
2513.7566,100.077
2514.7209,100.085
2515.6851,100.098
2516.6494,100.112
2517.6135,100.127
2518.5779,100.138
2519.5420,100.144
2520.5063,100.146
2521.4705,100.147
2522.4348,100.149
2523.3989,100.152
2524.3633,100.157
2525.3274,100.161
2526.2917,100.162
2527.2559,100.162
2528.2202,100.162
2529.1843,100.163
2530.1487,100.166
2531.1128,100.17
2532.0771,100.172
2533.0413,100.173
2534.0056,100.174
2534.9697,100.177
2535.9341,100.183
2536.8982,100.19
2537.8625,100.197
2538.8267,100.204
2539.7910,100.209
2540.7551,100.213
2541.7195,100.217
2542.6836,100.222
2543.6479,100.228
2544.6121,100.235
2545.5764,100.243
2546.5405,100.252
2547.5049,100.26
2548.4690,100.266
2549.4333,100.269
2550.3975,100.269
2551.3618,100.268
2552.3259,100.269
2553.2903,100.274
2554.2544,100.282
2555.2188,100.291
2556.1829,100.3
2557.1472,100.307
2558.1113,100.313
2559.0757,100.32
2560.0398,100.328
2561.0042,100.336
2561.9683,100.343
2562.9326,100.346
2563.8967,100.345
2564.8611,100.342
2565.8252,100.338
2566.7896,100.339
2567.7537,100.344
2568.7180,100.353
2569.6821,100.365
2570.6465,100.376
2571.6106,100.383
2572.5750,100.385
2573.5391,100.384
2574.5034,100.379
2575.4675,100.373
2576.4319,100.368
2577.3960,100.367
2578.3604,100.369
2579.3245,100.376
2580.2888,100.385
2581.2529,100.396
2582.2173,100.404
2583.1814,100.411
2584.1458,100.414
2585.1099,100.414
2586.0742,100.413
2587.0383,100.41
2588.0027,100.406
2588.9668,100.402
2589.9312,100.4
2590.8953,100.4
2591.8596,100.401
2592.8237,100.405
2593.7881,100.409
2594.7522,100.414
2595.7166,100.418
2596.6807,100.423
2597.6450,100.428
2598.6091,100.435
2599.5735,100.445
2600.5376,100.456
2601.5020,100.467
2602.4661,100.476
2603.4304,100.482
2604.3945,100.484
2605.3589,100.485
2606.3230,100.486
2607.2874,100.488
2608.2515,100.492
2609.2158,100.498
2610.1799,100.506
2611.1443,100.514
2612.1084,100.522
2613.0728,100.53
2614.0369,100.537
2615.0012,100.542
2615.9653,100.547
2616.9297,100.55
2617.8938,100.554
2618.8582,100.559
2619.8223,100.565
2620.7866,100.571
2621.7507,100.575
2622.7151,100.578
2623.6792,100.58
2624.6436,100.583
2625.6077,100.587
2626.5720,100.595
2627.5361,100.603
2628.5005,100.61
2629.4646,100.614
2630.4290,100.615
2631.3931,100.612
2632.3574,100.609
2633.3215,100.609
2634.2859,100.611
2635.2500,100.617
2636.2144,100.623
2637.1785,100.629
2638.1428,100.633
2639.1069,100.635
2640.0713,100.638
2641.0354,100.641
2641.9998,100.646
2642.9639,100.652
2643.9282,100.657
2644.8923,100.66
2645.8567,100.661
2646.8208,100.662
2647.7852,100.662
2648.7493,100.663
2649.7136,100.663
2650.6777,100.663
2651.6421,100.662
2652.6062,100.661
2653.5706,100.665
2654.5347,100.673
2655.4990,100.686
2656.4631,100.702
2657.4275,100.716
2658.3916,100.725
2659.3560,100.728
2660.3201,100.727
2661.2844,100.725
2662.2485,100.724
2663.2129,100.727
2664.1770,100.734
2665.1414,100.744
2666.1055,100.755
2667.0698,100.764
2668.0339,100.77
2668.9983,100.774
2669.9624,100.776
2670.9268,100.777
2671.8909,100.78
2672.8552,100.785
2673.8193,100.792
2674.7837,100.803
2675.7478,100.813
2676.7122,100.821
2677.6763,100.823
2678.6406,100.817
2679.6047,100.806
2680.5691,100.791
2681.5332,100.777
2682.4976,100.767
2683.4617,100.761
2684.4260,100.758
2685.3901,100.757
2686.3545,100.756
2687.3186,100.754
2688.2830,100.754
2689.2471,100.756
2690.2114,100.76
2691.1755,100.763
2692.1399,100.763
2693.1040,100.761
2694.0684,100.755
2695.0325,100.747
2695.9968,100.741
2696.9609,100.736
2697.9253,100.732
2698.8894,100.729
2699.8538,100.725
2700.8179,100.718
2701.7822,100.71
2702.7463,100.699
2703.7107,100.689
2704.6748,100.679
2705.6392,100.672
2706.6033,100.667
2707.5676,100.662
2708.5317,100.657
2709.4961,100.651
2710.4602,100.644
2711.4246,100.636
2712.3887,100.626
2713.3530,100.614
2714.3171,100.6
2715.2815,100.584
2716.2456,100.567
2717.2100,100.552
2718.1741,100.541
2719.1384,100.537
2720.1025,100.538
2721.0669,100.542
2722.0310,100.545
2722.9954,100.545
2723.9595,100.541
2724.9238,100.531
2725.8879,100.519
2726.8523,100.508
2727.8164,100.499
2728.7808,100.493
2729.7449,100.491
2730.7092,100.491
2731.6733,100.493
2732.6377,100.495
2733.6018,100.497
2734.5662,100.496
2735.5303,100.49
2736.4946,100.479
2737.4587,100.464
2738.4231,100.449
2739.3872,100.438
2740.3516,100.434
2741.3157,100.438
2742.2800,100.449
2743.2441,100.463
2744.2085,100.478
2745.1726,100.49
2746.1370,100.499
2747.1011,100.504
2748.0654,100.506
2749.0295,100.503
2749.9939,100.499
2750.9580,100.495
2751.9224,100.493
2752.8865,100.496
2753.8508,100.502
2754.8149,100.509
2755.7793,100.513
2756.7434,100.513
2757.7078,100.507
2758.6719,100.5
2759.6362,100.492
2760.6003,100.488
2761.5647,100.488
2762.5288,100.491
2763.4932,100.495
2764.4573,100.498
2765.4216,100.497
2766.3857,100.495
2767.3501,100.49
2768.3142,100.487
2769.2786,100.483
2770.2427,100.48
2771.2070,100.475
2772.1711,100.466
2773.1355,100.451
2774.0996,100.433
2775.0640,100.414
2776.0281,100.397
2776.9924,100.383
2777.9565,100.373
2778.9209,100.363
2779.8850,100.349
2780.8494,100.329
2781.8135,100.304
2782.7778,100.276
2783.7419,100.249
2784.7063,100.227
2785.6704,100.208
2786.6348,100.191
2787.5989,100.171
2788.5632,100.145
2789.5273,100.11
2790.4917,100.069
2791.4558,100.025
2792.4202,99.9822
2793.3843,99.9386
2794.3486,99.8978
2795.3127,99.8573
2796.2771,99.8146
2797.2412,99.7678
2798.2056,99.7168
2799.1697,99.6624
2800.1340,99.6062
2801.0981,99.5495
2802.0625,99.4933
2803.0266,99.4382
2803.9910,99.3851
2804.9551,99.3341
2805.9194,99.2844
2806.8835,99.234
2807.8479,99.1797
2808.8120,99.1189
2809.7764,99.0498
2810.7405,98.9728
2811.7048,98.8896
2812.6689,98.8023
2813.6333,98.7122
2814.5974,98.6195
2815.5618,98.5226
2816.5259,98.4195
2817.4902,98.3076
2818.4543,98.1851
2819.4187,98.0509
2820.3828,97.9044
2821.3472,97.7453
2822.3113,97.5734
2823.2756,97.3883
2824.2397,97.1895
2825.2041,96.977
2826.1682,96.751
2827.1326,96.5125
2828.0967,96.2631
2829.0610,96.005
2830.0251,95.7406
2830.9895,95.4732
2831.9536,95.2061
2832.9180,94.9425
2833.8821,94.6853
2834.8464,94.4366
2835.8105,94.1981
2836.7749,93.9713
2837.7390,93.7583
2838.7034,93.5622
2839.6675,93.3866
2840.6318,93.2337
2841.5959,93.1021
2842.5603,92.9854
2843.5244,92.8737
2844.4888,92.7574
2845.4529,92.6327
2846.4172,92.5057
2847.3813,92.391
2848.3457,92.3061
2849.3098,92.263
2850.2742,92.2618
2851.2383,92.2912
2852.2026,92.3331
2853.1667,92.3702
2854.1311,92.3917
2855.0952,92.3935
2856.0596,92.3757
2857.0237,92.3388
2857.9880,92.2815
2858.9521,92.2016
2859.9165,92.0974
2860.8806,91.9695
2861.8450,91.8212
2862.8091,91.6578
2863.7734,91.486
2864.7375,91.3132
2865.7019,91.1458
2866.6660,90.9883
2867.6304,90.8421
2868.5945,90.7065
2869.5588,90.5797
2870.5229,90.4607
2871.4873,90.3495
2872.4514,90.2461
2873.4158,90.1491
2874.3799,90.0551
2875.3442,89.9589
2876.3083,89.8546
2877.2727,89.7376
2878.2368,89.6057
2879.2012,89.4595
2880.1653,89.3035
2881.1296,89.1455
2882.0938,88.9953
2883.0581,88.8622
2884.0222,88.7519
2884.9866,88.6644
2885.9507,88.5932
2886.9150,88.5275
2887.8792,88.4551
2888.8435,88.3676
2889.8076,88.2636
2890.7720,88.1501
2891.7361,88.0387
2892.7004,87.9378
2893.6646,87.8448
2894.6289,87.7441
2895.5930,87.6132
2896.5574,87.4369
2897.5215,87.2206
2898.4858,86.9938
2899.4500,86.7999
2900.4143,86.6766
2901.3784,86.6382
2902.3428,86.6697
2903.3069,86.7362
2904.2712,86.8003
2905.2354,86.8374
2906.1997,86.8403
2907.1638,86.8142
2908.1282,86.7676
2909.0923,86.706
2910.0566,86.6308
2911.0208,86.5418
2911.9851,86.4398
2912.9492,86.3276
2913.9136,86.2089
2914.8777,86.0883
2915.8420,85.9708
2916.8062,85.8619
2917.7705,85.7666
2918.7346,85.6877
2919.6990,85.6244
2920.6631,85.5733
2921.6274,85.5294
2922.5916,85.4884
2923.5559,85.447
2924.5200,85.4029
2925.4844,85.3547
2926.4485,85.3016
2927.4128,85.2441
2928.3770,85.1842
2929.3413,85.1244
2930.3054,85.0672
2931.2698,85.0152
2932.2339,84.9723
2933.1982,84.9441
2934.1624,84.9381
2935.1267,84.9613
2936.0908,85.0175
2937.0552,85.1053
2938.0193,85.2188
2938.9836,85.351
2939.9478,85.4967
2940.9121,85.6551
2941.8762,85.828
2942.8406,86.0169
2943.8047,86.2187
2944.7690,86.4245
2945.7332,86.6211
2946.6975,86.795
2947.6616,86.9366
2948.6260,87.042
2949.5901,87.1124
2950.5544,87.1512
2951.5186,87.1612
2952.4829,87.1435
2953.4470,87.0981
2954.4114,87.0265
2955.3755,86.9327
2956.3398,86.823
2957.3040,86.7038
2958.2683,86.5787
2959.2324,86.4467
2960.1968,86.303
2961.1609,86.1417
2962.1252,85.959
2963.0894,85.7561
2964.0537,85.5391
2965.0178,85.3176
2965.9822,85.1029
2966.9463,84.9062
2967.9106,84.7384
2968.8748,84.6105
2969.8391,84.5322
2970.8032,84.511
2971.7676,84.5501
2972.7317,84.6479
2973.6960,84.7988
2974.6602,84.9948
2975.6245,85.2279
2976.5886,85.4908
2977.5530,85.7774
2978.5171,86.0822
2979.4814,86.4002
2980.4456,86.7242
2981.4099,87.0431
2982.3740,87.3416
2983.3384,87.6042
2984.3025,87.8244
2985.2668,88.0135
2986.2310,88.2035
2987.1953,88.4375
2988.1594,88.7507
2989.1238,89.1513
2990.0879,89.6123
2991.0522,90.0821
2992.0164,90.5068
2992.9807,90.8535
2993.9448,91.1206
2994.9092,91.3326
2995.8733,91.5232
2996.8376,91.7187
2997.8018,91.93
2998.7661,92.1544
2999.7302,92.3836
3000.6946,92.6119
3001.6587,92.8386
3002.6230,93.0677
3003.5872,93.305
3004.5515,93.5537
3005.5156,93.8129
3006.4800,94.0772
3007.4441,94.3385
3008.4084,94.5898
3009.3726,94.8286
3010.3369,95.0581
3011.3010,95.2858
3012.2654,95.5185
3013.2295,95.7583
3014.1938,96.0013
3015.1580,96.2398
3016.1223,96.4663
3017.0864,96.6769
3018.0508,96.8715
3019.0149,97.0527
3019.9792,97.2229
3020.9434,97.3836
3021.9077,97.5361
3022.8718,97.682
3023.8362,97.8232
3024.8003,97.9608
3025.7646,98.0941
3026.7288,98.2202
3027.6931,98.3364
3028.6572,98.4415
3029.6216,98.5379
3030.5857,98.6301
3031.5500,98.7225
3032.5142,98.8174
3033.4785,98.9137
3034.4426,99.0082
3035.4070,99.098
3036.3711,99.1813
3037.3354,99.2577
3038.2996,99.3265
3039.2639,99.3862
3040.2280,99.4338
3041.1924,99.4662
3042.1565,99.4826
3043.1208,99.4852
3044.0850,99.4802
3045.0493,99.4755
3046.0134,99.4779
3046.9778,99.4896
3047.9419,99.5071
3048.9063,99.5219
3049.8704,99.5246
3050.8347,99.4919
3051.7988,99.439
3052.7632,99.3778
3053.7273,99.3182
3054.6917,99.2676
3055.6558,99.2283
3056.6201,99.1974
3057.5842,99.1685
3058.5486,99.1356
3059.5127,99.0949
3060.4771,99.0458
3061.4412,98.9904
3062.4055,98.9333
3063.3696,98.8795
3064.3340,98.8333
3065.2981,98.7967
3066.2625,98.7685
3067.2266,98.745
3068.1909,98.7225
3069.1550,98.6982
3070.1194,98.6714
3071.0835,98.6422
3072.0479,98.6104
3073.0120,98.5747
3073.9763,98.5341
3074.9404,98.4888
3075.9048,98.4409
3076.8689,98.3948
3077.8333,98.3544
3078.7974,98.3223
3079.7617,98.2982
3080.7258,98.2794
3081.6902,98.2624
3082.6543,98.2441
3083.6187,98.223
3084.5828,98.199
3085.5471,98.173
3086.5112,98.1462
3087.4756,98.1187
3088.4397,98.0888
3089.4041,98.0537
3090.3682,98.0111
3091.3325,97.9604
3092.2966,97.9039
3093.2610,97.846
3094.2251,97.7906
3095.1895,97.7395
3096.1536,97.6916
3097.1179,97.6446
3098.0820,97.5973
3099.0464,97.5506
3100.0105,97.5072
3100.9749,97.4691
3101.9390,97.4369
3102.9033,97.4085
3103.8674,97.3811
3104.8318,97.3521
3105.7959,97.3192
3106.7603,97.2807
3107.7244,97.2351
3108.6887,97.1819
3109.6528,97.1223
3110.6172,97.0596
3111.5813,96.9976
3112.5457,96.9391
3113.5098,96.8848
3114.4741,96.8337
3115.4382,96.7847
3116.4026,96.7375
3117.3667,96.6931
3118.3311,96.652
3119.2952,96.6133
3120.2595,96.5745
3121.2236,96.5329
3122.1880,96.4877
3123.1521,96.4409
3124.1165,96.3962
3125.0806,96.3561
3126.0449,96.3197
3127.0090,96.282
3127.9734,96.237
3128.9375,96.1815
3129.9019,96.1178
3130.8660,96.0541
3131.8303,96.0003
3132.7944,95.9632
3133.7588,95.9429
3134.7229,95.9325
3135.6873,95.9213
3136.6514,95.9004
3137.6157,95.8655
3138.5798,95.8182
3139.5442,95.7634
3140.5083,95.7068
3141.4727,95.652
3142.4368,95.6
3143.4011,95.55
3144.3652,95.5009
3145.3296,95.4533
3146.2937,95.4088
3147.2581,95.3689
3148.2222,95.3338
3149.1865,95.301
3150.1506,95.2656
3151.1150,95.2229
3152.0791,95.1702
3153.0435,95.1084
3154.0076,95.041
3154.9719,94.973
3155.9360,94.9083
3156.9004,94.8486
3157.8645,94.7935
3158.8289,94.7413
3159.7930,94.69
3160.7573,94.6383
3161.7214,94.5858
3162.6858,94.5333
3163.6499,94.4818
3164.6143,94.432
3165.5784,94.3833
3166.5427,94.334
3167.5068,94.2825
3168.4712,94.2277
3169.4353,94.2251
3170.3997,94.1652
3171.3638,94.1036
3172.3281,94.0407
3173.2922,93.9768
3174.2566,93.9133
3175.2207,93.8525
3176.1851,93.7972
3177.1492,93.7485
3178.1135,93.7041
3179.0776,93.6591
3180.0420,93.6086
3181.0061,93.5509
3181.9705,93.4891
3182.9346,93.4297
3183.8989,93.3786
3184.8630,93.3377
3185.8274,93.3033
3186.7915,93.2686
3187.7559,93.2273
3188.7200,93.1774
3189.6843,93.1213
3190.6484,93.0634
3191.6128,93.0065
3192.5769,92.9505
3193.5413,92.8932
3194.5054,92.8331
3195.4697,92.7708
3196.4338,92.7094
3197.3982,92.6523
3198.3623,92.6015
3199.3267,92.5566
3200.2908,92.5155
3201.2551,92.476
3202.2192,92.4361
3203.1836,92.3938
3204.1477,92.3471
3205.1121,92.2948
3206.0762,92.2381
3207.0405,92.18
3208.0046,92.1246
3208.9690,92.0745
3209.9331,92.0288
3210.8975,91.9843
3211.8616,91.9377
3212.8259,91.8883
3213.7900,91.8388
3214.7544,91.793
3215.7185,91.7534
3216.6829,91.7189
3217.6470,91.6862
3218.6113,91.6516
3219.5754,91.6133
3220.5398,91.572
3221.5039,91.5287
3222.4683,91.4838
3223.4324,91.4369
3224.3967,91.3878
3225.3608,91.3389
3226.3252,91.2945
3227.2893,91.2594
3228.2537,91.2354
3229.2178,91.2192
3230.1821,91.2042
3231.1462,91.1827
3232.1106,91.1509
3233.0747,91.1102
3234.0391,91.0657
3235.0032,91.0226
3235.9675,90.9834
3236.9316,90.9467
3237.8960,90.9088
3238.8601,90.8662
3239.8245,90.8184
3240.7886,90.7679
3241.7529,90.7191
3242.7170,90.6771
3243.6814,90.6452
3244.6455,90.6238
3245.6099,90.6092
3246.5740,90.5947
3247.5383,90.5735
3248.5024,90.5415
3249.4668,90.4995
3250.4309,90.4523
3251.3953,90.4059
3252.3594,90.364
3253.3237,90.3261
3254.2878,90.2884
3255.2522,90.2471
3256.2163,90.2014
3257.1807,90.1546
3258.1448,90.1113
3259.1091,90.0747
3260.0732,90.0446
3261.0376,90.0177
3262.0017,89.991
3262.9661,89.9633
3263.9302,89.9361
3264.8945,89.9114
3265.8586,89.8896
3266.8230,89.8677
3267.7871,89.8408
3268.7515,89.8044
3269.7156,89.7571
3270.6799,89.7023
3271.6440,89.6466
3272.6084,89.5973
3273.5725,89.5595
3274.5369,89.5337
3275.5010,89.5169
3276.4653,89.5039
3277.4294,89.4896
3278.3938,89.4707
3279.3579,89.446
3280.3223,89.4155
3281.2864,89.3809
3282.2507,89.3445
3283.2148,89.3095
3284.1792,89.278
3285.1433,89.2504
3286.1077,89.2243
3287.0718,89.1966
3288.0361,89.1648
3289.0002,89.1297
3289.9646,89.0953
3290.9287,89.0663
3291.8931,89.0451
3292.8572,89.0298
3293.8215,89.0145
3294.7856,88.9928
3295.7500,88.9612
3296.7141,88.9209
3297.6785,88.8776
3298.6426,88.8384
3299.6069,88.8092
3300.5710,88.7923
3301.5354,88.785
3302.4995,88.7812
3303.4639,88.7731
3304.4280,88.7548
3305.3923,88.7243
3306.3564,88.6844
3307.3208,88.6409
3308.2849,88.5997
3309.2493,88.564
3310.2134,88.5334
3311.1777,88.5055
3312.1418,88.4782
3313.1062,88.4513
3314.0703,88.4255
3315.0347,88.402
3315.9988,88.3804
3316.9631,88.3592
3317.9272,88.3366
3318.8916,88.3118
3319.8557,88.2852
3320.8201,88.2578
3321.7842,88.2304
3322.7485,88.2027
3323.7126,88.1745
3324.6770,88.1464
3325.6411,88.1199
3326.6055,88.0976
3327.5696,88.0812
3328.5339,88.0698
3329.4980,88.0604
3330.4624,88.0492
3331.4265,88.0337
3332.3909,88.0147
3333.3550,87.9959
3334.3193,87.9816
3335.2834,87.9738
3336.2478,87.97
3337.2119,87.9651
3338.1763,87.954
3339.1404,87.9355
3340.1047,87.9122
3341.0688,87.8887
3342.0332,87.8681
3342.9973,87.8511
3343.9617,87.8363
3344.9258,87.8225
3345.8901,87.8101
3346.8542,87.8
3347.8186,87.7927
3348.7827,87.7865
3349.7471,87.7782
3350.7112,87.7648
3351.6755,87.7449
3352.6396,87.7197
3353.6040,87.6921
3354.5681,87.6664
3355.5325,87.6466
3356.4966,87.636
3357.4609,87.6353
3358.4250,87.6415
3359.3894,87.6487
3360.3535,87.6498
3361.3179,87.6406
3362.2820,87.6219
3363.2463,87.5995
3364.2104,87.5804
3365.1748,87.5692
3366.1389,87.5651
3367.1033,87.5637
3368.0674,87.5609
3369.0317,87.556
3369.9958,87.5525
3370.9602,87.5548
3371.9243,87.5638
3372.8887,87.5757
3373.8528,87.583
3374.8171,87.5792
3375.7813,87.563
3376.7456,87.5394
3377.7097,87.5167
3378.6741,87.5014
3379.6382,87.4947
3380.6025,87.4923
3381.5667,87.4885
3382.5310,87.4807
3383.4951,87.4715
3384.4595,87.4669
3385.4236,87.4713
3386.3879,87.4839
3387.3521,87.4993
3388.3164,87.5107
3389.2805,87.5138
3390.2449,87.5094
3391.2090,87.502
3392.1733,87.4975
3393.1375,87.5007
3394.1018,87.5141
3395.0659,87.5375
3396.0303,87.568
3396.9944,87.5995
3397.9587,87.624
3398.9229,87.635
3399.8872,87.6314
3400.8513,87.6191
3401.8157,87.6085
3402.7798,87.609
3403.7441,87.6243
3404.7083,87.6508
3405.6726,87.6817
3406.6367,87.7107
3407.6011,87.7345
3408.5652,87.7526
3409.5295,87.7644
3410.4937,87.7681
3411.4580,87.7622
3412.4221,87.7478
3413.3865,87.7293
3414.3506,87.7129
3415.3149,87.7036
3416.2791,87.7027
3417.2434,87.7095
3418.2075,87.7236
3419.1719,87.7468
3420.1360,87.7811
3421.1003,87.8257
3422.0645,87.8749
3423.0288,87.9198
3423.9929,87.9531
3424.9573,87.9734
3425.9214,87.9857
3426.8857,87.9989
3427.8499,88.0215
3428.8142,88.0571
3429.7783,88.1034
3430.7427,88.1542
3431.7068,88.2033
3432.6711,88.2469
3433.6353,88.2842
3434.5996,88.3148
3435.5637,88.3376
3436.5281,88.3504
3437.4922,88.3523
3438.4565,88.345
3439.4207,88.3334
3440.3850,88.323
3441.3491,88.3173
3442.3135,88.3164
3443.2776,88.319
3444.2419,88.3265
3445.2061,88.3442
3446.1704,88.3797
3447.1345,88.4364
3448.0989,88.5087
3449.0630,88.5837
3450.0273,88.6483
3450.9915,88.6955
3451.9558,88.7259
3452.9199,88.7451
3453.8843,88.7601
3454.8484,88.7749
3455.8127,88.7898
3456.7769,88.803
3457.7412,88.8138
3458.7053,88.8246
3459.6697,88.8405
3460.6338,88.8657
3461.5981,88.9007
3462.5623,88.942
3463.5266,88.9841
3464.4907,89.0232
3465.4551,89.0592
3466.4192,89.0942
3467.3835,89.1299
3468.3477,89.1646
3469.3120,89.1937
3470.2761,89.2137
3471.2405,89.2255
3472.2046,89.235
3473.1689,89.2506
3474.1331,89.2766
3475.0974,89.3094
3476.0615,89.3389
3477.0259,89.355
3477.9900,89.3549
3478.9543,89.3461
3479.9185,89.3441
3480.8828,89.363
3481.8469,89.4066
3482.8113,89.4656
3483.7754,89.5247
3484.7397,89.5724
3485.7039,89.6082
3486.6682,89.64
3487.6323,89.6781
3488.5967,89.727
3489.5608,89.7819
3490.5251,89.8325
3491.4893,89.8706
3492.4536,89.896
3493.4177,89.9164
3494.3821,89.9425
3495.3462,89.9794
3496.3105,90.0208
3497.2747,90.0519
3498.2390,90.0597
3499.2031,90.0429
3500.1675,90.0161
3501.1316,90.0066
3502.0959,90.041
3503.0601,90.1265
3504.0244,90.2428
3504.9885,90.3565
3505.9529,90.4437
3506.9170,90.5006
3507.8813,90.5399
3508.8455,90.5818
3509.8098,90.6423
3510.7739,90.7245
3511.7383,90.8197
3512.7024,90.9161
3513.6667,91.0059
3514.6309,91.0859
3515.5952,91.1548
3516.5593,91.2107
3517.5237,91.2516
3518.4878,91.278
3519.4521,91.2937
3520.4163,91.3054
3521.3806,91.3204
3522.3447,91.3433
3523.3091,91.3752
3524.2732,91.4152
3525.2375,91.4656
3526.2017,91.534
3527.1660,91.6298
3528.1301,91.7561
3529.0945,91.903
3530.0586,92.0501
3531.0229,92.1787
3531.9871,92.2819
3532.9514,92.3658
3533.9155,92.4455
3534.8799,92.5363
3535.8440,92.6452
3536.8083,92.7648
3537.7725,92.8754
3538.7368,92.9569
3539.7009,92.9993
3540.6653,93.0076
3541.6294,92.999
3542.5938,93.0001
3543.5579,93.0414
3544.5222,93.1443
3545.4863,93.3023
3546.4507,93.4774
3547.4148,93.6264
3548.3792,93.7312
3549.3433,93.805
3550.3076,93.8772
3551.2717,93.9757
3552.2361,94.1117
3553.2002,94.2736
3554.1646,94.4356
3555.1287,94.5757
3556.0930,94.6864
3557.0571,94.7699
3558.0215,94.829
3558.9856,94.8629
3559.9500,94.8689
3560.9141,94.8476
3561.8784,94.8057
3562.8425,94.7545
3563.8069,94.7118
3564.7710,94.7134
3565.7354,94.8216
3566.6995,95.0742
3567.6638,95.406
3568.6279,95.6884
3569.5923,95.8544
3570.5564,95.9278
3571.5208,95.9636
3572.4849,95.9991
3573.4492,96.0444
3574.4133,96.094
3575.3777,96.1415
3576.3418,96.186
3577.3062,96.2314
3578.2703,96.2792
3579.2346,96.3249
3580.1987,96.3593
3581.1631,96.3772
3582.1272,96.3818
3583.0916,96.3822
3584.0557,96.3866
3585.0200,96.4063
3585.9841,96.4652
3586.9485,96.5805
3587.9126,96.7147
3588.8770,96.7911
3589.8411,96.7756
3590.8054,96.6993
3591.7695,96.6139
3592.7339,96.5536
3593.6980,96.5271
3594.6624,96.5239
3595.6265,96.523
3596.5908,96.5115
3597.5549,96.4996
3598.5193,96.5156
3599.4834,96.5829
3600.4478,96.6982
3601.4119,96.8303
3602.3762,96.9449
3603.3403,97.0301
3604.3047,97.0963
3605.2688,97.1629
3606.2332,97.2474
3607.1973,97.3568
3608.1616,97.4763
3609.1257,97.5681
3610.0901,97.5963
3611.0542,97.5538
3612.0186,97.4656
3612.9829,97.3718
3613.9470,97.3071
3614.9114,97.2879
3615.8755,97.3133
3616.8398,97.3731
3617.8040,97.4566
3618.7683,97.5492
3619.7324,97.6147
3620.6968,97.6066
3621.6609,97.5173
3622.6252,97.3989
3623.5894,97.3254
3624.5537,97.3418
3625.5178,97.4402
3626.4822,97.5758
3627.4463,97.7187
3628.4106,97.8707
3629.3748,97.9928
3630.3391,98.0109
3631.3032,97.9305
3632.2676,97.8348
3633.2317,97.7967
3634.1960,97.8335
3635.1602,97.9164
3636.1245,98.0015
3637.0886,98.0586
3638.0530,98.081
3639.0171,98.0766
3639.9814,98.0546
3640.9456,98.0221
3641.9099,97.9885
3642.8740,97.968
3643.8384,97.9701
3644.8025,97.9784
3645.7668,97.9383
3646.7310,97.8003
3647.6953,97.6477
3648.6594,97.7107
3649.6238,98.0099
3650.5879,98.2643
3651.5522,98.3233
3652.5164,98.2617
3653.4807,98.1914
3654.4448,98.1623
3655.4092,98.1666
3656.3733,98.1731
3657.3376,98.1561
3658.3018,98.1143
3659.2661,98.0727
3660.2302,98.0596
3661.1946,98.0806
3662.1587,98.1169
3663.1230,98.1471
3664.0872,98.1688
3665.0515,98.1948
3666.0156,98.2283
3666.9800,98.2459
3667.9441,98.2184
3668.9084,98.1548
3669.8726,98.0982
3670.8369,98.0707
3671.8010,98.0642
3672.7654,98.0646
3673.7295,98.0653
3674.6938,98.0876
3675.6580,98.1671
3676.6223,98.2777
3677.5864,98.3457
3678.5508,98.3508
3679.5149,98.3285
3680.4792,98.308
3681.4434,98.2915
3682.4077,98.2749
3683.3718,98.2679
3684.3362,98.2875
3685.3003,98.3307
3686.2646,98.3556
3687.2288,98.3078
3688.1931,98.1971
3689.1572,98.119
3690.1216,98.1348
3691.0857,98.1999
3692.0500,98.258
3693.0142,98.3011
3693.9785,98.3432
3694.9426,98.3933
3695.9070,98.454
3696.8711,98.5265
3697.8354,98.6118
3698.7996,98.708
3699.7639,98.8091
3700.7280,98.9071
3701.6924,98.9899
3702.6565,99.0398
3703.6208,99.0464
3704.5850,99.0218
3705.5493,98.992
3706.5134,98.9739
3707.4778,98.9635
3708.4419,98.9568
3709.4063,98.997
3710.3704,99.1722
3711.3347,99.4902
3712.2988,99.8016
3713.2632,99.9568
3714.2273,99.9417
3715.1917,99.8292
3716.1558,99.6899
3717.1201,99.5555
3718.0842,99.4268
3719.0486,99.297
3720.0127,99.169
3720.9771,99.057
3721.9412,98.9761
3722.9055,98.9336
3723.8696,98.9263
3724.8340,98.9417
3725.7981,98.9623
3726.7625,98.9776
3727.7266,98.993
3728.6909,99.0222
3729.6550,99.0665
3730.6194,99.1016
3731.5835,99.087
3732.5479,99.0088
3733.5120,98.9425
3734.4763,98.992
3735.4404,99.1744
3736.4048,99.3494
3737.3689,99.4059
3738.3333,99.3888
3739.2974,99.4256
3740.2617,99.6123
3741.2258,99.9512
3742.1902,100.338
3743.1543,100.608
3744.1187,100.634
3745.0828,100.416
3746.0471,100.073
3747.0112,99.7487
3747.9756,99.5424
3748.9397,99.4986
3749.9041,99.6334
3750.8682,99.8923
3751.8325,100.096
3752.7966,100.095
3753.7610,99.9251
3754.7251,99.7136
3755.6895,99.5558
3756.6536,99.4857
3757.6179,99.5002
3758.5820,99.5776
3759.5464,99.6781
3760.5105,99.7596
3761.4749,99.8058
3762.4390,99.8266
3763.4033,99.8367
3764.3674,99.8413
3765.3318,99.8383
3766.2959,99.8285
3767.2603,99.8209
3768.2244,99.8316
3769.1887,99.8715
3770.1528,99.9316
3771.1172,99.9832
3772.0813,100.001
3773.0457,99.9857
3774.0098,99.9591
3774.9741,99.9413
3775.9382,99.9353
3776.9026,99.9317
3777.8667,99.9237
3778.8311,99.9084
3779.7952,99.8776
3780.7595,99.8219
3781.7236,99.7456
3782.6880,99.6707
3783.6521,99.6256
3784.6165,99.632
3785.5806,99.6925
3786.5449,99.7874
3787.5090,99.8851
3788.4734,99.9601
3789.4375,100.004
3790.4019,100.023
3791.3660,100.022
3792.3303,99.9977
3793.2944,99.9381
3794.2588,99.837
3795.2229,99.712
3796.1873,99.6015
3797.1514,99.5424
3798.1157,99.545
3799.0798,99.5898
3800.0442,99.6472
3801.0083,99.6975
3801.9727,99.731
3802.9368,99.7514
3803.9011,99.7843
3804.8652,99.8591
3805.8296,99.9753
3806.7937,100.089
3807.7581,100.135
3808.7222,100.084
3809.6865,99.9769
3810.6506,99.8979
3811.6150,99.9042
3812.5791,99.984
3813.5435,100.066
3814.5076,100.073
3815.4719,99.9848
3816.4360,99.84
3817.4004,99.6988
3818.3645,99.6066
3819.3289,99.5854
3820.2930,99.628
3821.2573,99.6866
3822.2214,99.6935
3823.1858,99.626
3824.1499,99.5285
3825.1143,99.4659
3826.0784,99.4753
3827.0427,99.5499
3828.0068,99.6521
3828.9712,99.738
3829.9353,99.7809
3830.8997,99.7808
3831.8638,99.7583
3832.8281,99.7375
3833.7922,99.7265
3834.7566,99.7093
3835.7207,99.6571
3836.6851,99.5594
3837.6492,99.4485
3838.6135,99.3791
3839.5776,99.3808
3840.5420,99.4451
3841.5061,99.5488
3842.4705,99.6638
3843.4346,99.7538
3844.3989,99.7817
3845.3630,99.7351
3846.3274,99.6463
3847.2915,99.5843
3848.2559,99.6211
3849.2200,99.7906
3850.1843,100.06
3851.1484,100.343
3852.1128,100.579
3853.0769,100.769
3854.0413,100.829
3855.0054,100.638
3855.9697,100.27
3856.9338,99.9093
3857.8982,99.6774
3858.8623,99.5913
3859.8267,99.5921
3860.7908,99.5979
3861.7551,99.5629
3862.7192,99.5113
3863.6836,99.5037
3864.6477,99.5689
3865.6121,99.6839
3866.5762,99.8019
3867.5405,99.879
3868.5046,99.8896
3869.4690,99.8434
3870.4331,99.7828
3871.3975,99.7486
3872.3616,99.7484
3873.3259,99.7641
3874.2900,99.781
3875.2544,99.7984
3876.2185,99.8187
3877.1829,99.8347
3878.1470,99.8316
3879.1113,99.8028
3880.0754,99.7658
3881.0398,99.7548
3882.0039,99.7964
3882.9683,99.8915
3883.9324,100.013
3884.8967,100.115
3885.8608,100.155
3886.8252,100.122
3887.7893,100.037
3888.7537,99.9386
3889.7178,99.8563
3890.6821,99.8052
3891.6462,99.7869
3892.6106,99.7837
3893.5747,99.7746
3894.5391,99.7634
3895.5032,99.7701
3896.4675,99.7993
3897.4316,99.8314
3898.3960,99.8429
3899.3601,99.8296
3900.3245,99.8052
3901.2886,99.7838
3902.2529,99.7748
3903.2170,99.7837
3904.1814,99.805
3905.1455,99.8228
3906.1099,99.828
3907.0740,99.8287
3908.0383,99.8389
3909.0024,99.8631
3909.9668,99.8938
3910.9309,99.9193
3911.8953,99.9331
3912.8594,99.9364
3913.8237,99.9348
3914.7878,99.9342
3915.7522,99.94
3916.7163,99.9539
3917.6807,99.9662
3918.6448,99.9564
3919.6091,99.9093
3920.5732,99.8309
3921.5376,99.7446
3922.5017,99.677
3923.4661,99.6451
3924.4302,99.6466
3925.3945,99.6602
3926.3586,99.6622
3927.3230,99.644
3928.2871,99.6146
3929.2515,99.5927
3930.2156,99.5988
3931.1799,99.645
3932.1440,99.7228
3933.1084,99.8041
3934.0725,99.862
3935.0369,99.8878
3936.0010,99.8888
3936.9653,99.8753
3937.9294,99.8525
3938.8938,99.8211
3939.8579,99.784
3940.8223,99.7508
3941.7864,99.7347
3942.7507,99.7418
3943.7148,99.7634
3944.6792,99.7822
3945.6433,99.7835
3946.6077,99.7618
3947.5718,99.7235
3948.5361,99.6834
3949.5002,99.6577
3950.4646,99.6542
3951.4287,99.6705
3952.3931,99.6999
3953.3572,99.7344
3954.3215,99.7653
3955.2856,99.784
3956.2500,99.7849
3957.2141,99.7684
3958.1785,99.743
3959.1426,99.7222
3960.1069,99.7197
3961.0710,99.7414
3962.0354,99.7818
3962.9995,99.8258
3963.9639,99.8565
3964.9280,99.8634
3965.8923,99.8462
3966.8564,99.8122
3967.8208,99.7724
3968.7849,99.7369
3969.7493,99.7125
3970.7134,99.7026
3971.6777,99.7076
3972.6418,99.7253
3973.6062,99.7514
3974.5703,99.7794
3975.5347,99.8029
3976.4988,99.818
3977.4631,99.8247
3978.4272,99.8257
3979.3916,99.8236
3980.3557,99.8192
3981.3201,99.8118
3982.2842,99.8011
3983.2485,99.7891
3984.2126,99.7797
3985.1770,99.7773
3986.1411,99.7838
3987.1055,99.7964
3988.0696,99.8085
3989.0339,99.8114
3989.9980,99.7996
3990.9624,99.7745
3991.9265,99.7448
3992.8909,99.7233
3993.8550,99.7198
3994.8193,99.7357
3995.7834,99.7618
3996.7478,99.7838
3997.7119,99.7902
3998.6763,99.7792
3999.6404,99.7592
4000.6047,99.5361

##### Extended Information
[Comments]
Sample name
Comment
User
Division
Company,HANKYONG

[Detailed Information]
Creation date,4/24/2024 12:11 PM

Data array type,Linear data array
Horizontal axis,Wavenumber [cm-1]
Vertical axis,%T
Start,649.893 cm-1
End,4000.6 cm-1
Data interval,0.964233 cm-1
Data points,3476    

[Measurement Information]
Model Name,FT/IR-4700typeA
Serial Number,D056761788

Accessory,ATR PRO ONE
Accessory S/N,C174761809
Incident angle,45 deg

Measurement Date,4/24/2024 12:10 PM

Light Source,Standard
Detector,TGS
Accumulation,32
Resolution,4 cm-1
Zero Filling,On
Apodization,Cosine
Gain,Auto (4)
Aperture,Auto (7.1 mm)
Scanning Speed,Auto (2 mm/sec)
Filter,Auto (30000 Hz)

