TITLE,
DATA TYPE,INFRARED SPECTRUM
ORIGIN,JASCO
OWNER,
DATE,24/04/24
TIME,15:53:02
SPECTROMETER/DATA SYSTEM,
LOCALE,1033
RESOLUTION,
DELTAX,0.964233
XUNITS,1/CM
YUNITS,TRANSMITTANCE
FIRSTX,  649.8934
LASTX, 4000.6047
NPOINTS,    3476
FIRSTY,    98.17389
MAXY,   102.08006
MINY,    82.96854
XYDATA
649.8934,98.1739
650.8576,98.3518
651.8218,98.5172
652.7861,98.6349
653.7503,98.681
654.7145,98.6614
655.6788,98.6106
656.6430,98.5722
657.6072,98.5752
658.5715,98.6202
659.5357,98.6856
660.4999,98.7466
661.4642,98.7974
662.4284,98.8575
663.3926,98.9622
664.3569,99.1496
665.3211,99.4533
666.2853,99.884
667.2496,100.369
668.2138,100.696
669.1780,100.678
670.1423,100.423
671.1065,100.166
672.0707,100.02
673.0350,99.9923
673.9992,100.047
674.9634,100.139
675.9277,100.228
676.8919,100.293
677.8561,100.335
678.8204,100.367
679.7846,100.393
680.7488,100.409
681.7131,100.409
682.6773,100.396
683.6415,100.384
684.6058,100.391
685.5700,100.423
686.5342,100.471
687.4985,100.517
688.4627,100.541
689.4269,100.531
690.3912,100.495
691.3554,100.447
692.3196,100.405
693.2839,100.378
694.2481,100.363
695.2123,100.348
696.1766,100.32
697.1408,100.275
698.1050,100.218
699.0693,100.165
700.0335,100.129
700.9977,100.115
701.9620,100.121
702.9262,100.134
703.8904,100.144
704.8547,100.144
705.8189,100.133
706.7831,100.114
707.7474,100.092
708.7116,100.072
709.6758,100.059
710.6401,100.065
711.6043,100.088
712.5685,100.113
713.5328,100.136
714.4970,100.147
715.4612,100.146
716.4255,100.133
717.3897,100.115
718.3539,100.098
719.3182,100.087
720.2824,100.083
721.2466,100.08
722.2109,100.07
723.1751,100.05
724.1393,100.018
725.1036,99.9779
726.0678,99.934
727.0320,99.8921
727.9963,99.8585
728.9605,99.8396
729.9247,99.841
730.8890,99.8657
731.8532,99.9114
732.8174,99.9684
733.7817,100.021
734.7459,100.054
735.7101,100.055
736.6744,100.027
737.6386,99.9795
738.6028,99.9301
739.5671,99.892
740.5313,99.8701
741.4955,99.8608
742.4598,99.8565
743.4240,99.8513
744.3882,99.8429
745.3525,99.831
746.3167,99.8141
747.2809,99.7885
748.2452,99.7511
749.2094,99.7032
750.1736,99.6515
751.1379,99.6055
752.1021,99.5722
753.0663,99.5517
754.0306,99.5375
754.9948,99.5198
755.9590,99.4905
756.9233,99.4459
757.8875,99.387
758.8517,99.318
759.8160,99.2444
760.7802,99.1736
761.7444,99.1137
762.7087,99.0723
763.6729,99.0535
764.6371,99.0549
765.6014,99.0682
766.5656,99.0815
767.5298,99.085
768.4941,99.0747
769.4583,99.0533
770.4225,99.0281
771.3868,99.0067
772.3510,98.994
773.3152,98.9911
774.2795,98.9967
775.2437,99.0079
776.2079,99.0208
777.1722,99.0302
778.1364,99.0297
779.1006,99.0142
780.0649,98.9822
781.0291,98.9376
781.9933,98.8886
782.9576,98.8441
783.9218,98.81
784.8860,98.7865
785.8503,98.7683
786.8145,98.7481
787.7787,98.7193
788.7430,98.6777
789.7072,98.6221
790.6714,98.5529
791.6357,98.471
792.5999,98.3783
793.5641,98.2768
794.5284,98.1698
795.4926,98.0604
796.4568,97.9515
797.4211,97.8446
798.3853,97.74
799.3495,97.6368
800.3138,97.534
801.2780,97.4309
802.2422,97.3286
803.2065,97.2298
804.1707,97.1385
805.1349,97.0592
806.0992,96.995
807.0634,96.9463
808.0276,96.9098
808.9919,96.8795
809.9561,96.8483
810.9203,96.8099
811.8846,96.7615
812.8488,96.705
813.8130,96.6464
814.7773,96.5937
815.7415,96.5536
816.7057,96.5285
817.6700,96.5163
818.6342,96.5137
819.5984,96.5198
820.5627,96.5389
821.5269,96.5786
822.4911,96.6452
823.4554,96.7375
824.4196,96.8462
825.3839,96.9573
826.3481,97.0595
827.3123,97.1491
828.2766,97.2299
829.2408,97.3082
830.2050,97.3869
831.1693,97.4632
832.1335,97.531
833.0977,97.5861
834.0620,97.6289
835.0262,97.6627
835.9904,97.6898
836.9547,97.7085
837.9189,97.7133
838.8831,97.6976
839.8474,97.6576
840.8116,97.5939
841.7758,97.5111
842.7401,97.4161
843.7043,97.3167
844.6685,97.2196
845.6328,97.1294
846.5970,97.0466
847.5612,96.9683
848.5255,96.8908
849.4897,96.8133
850.4539,96.7403
851.4182,96.6805
852.3824,96.6419
853.3466,96.6277
854.3109,96.6353
855.2751,96.66
856.2393,96.6982
857.2036,96.7501
858.1678,96.8171
859.1320,96.8978
860.0963,96.986
861.0605,97.0731
862.0247,97.1516
862.9890,97.2193
863.9532,97.2783
864.9174,97.3319
865.8817,97.3809
866.8459,97.4228
867.8101,97.4527
868.7744,97.4655
869.7386,97.4565
870.7028,97.4216
871.6671,97.358
872.6313,97.2665
873.5955,97.1552
874.5598,97.04
875.5240,96.9416
876.4882,96.879
877.4525,96.8632
878.4167,96.8949
879.3809,96.9677
880.3452,97.074
881.3094,97.2096
882.2736,97.3738
883.2379,97.5659
884.2021,97.781
885.1663,98.0089
886.1306,98.2377
887.0948,98.4576
888.0590,98.6626
889.0233,98.8494
889.9875,99.0139
890.9517,99.1501
891.9160,99.253
892.8802,99.3227
893.8444,99.367
894.8087,99.3989
895.7729,99.4302
896.7371,99.465
897.7014,99.4977
898.6656,99.516
899.6298,99.5078
900.5941,99.4671
901.5583,99.3958
902.5225,99.3026
903.4868,99.1988
904.4510,99.095
905.4152,98.9992
906.3795,98.9148
907.3437,98.8412
908.3079,98.7746
909.2722,98.7108
910.2364,98.6487
911.2006,98.592
912.1649,98.549
913.1291,98.5281
914.0933,98.5337
915.0576,98.564
916.0218,98.6128
916.9860,98.6737
917.9503,98.7439
918.9145,98.8243
919.8787,98.9169
920.8430,99.0213
921.8072,99.1329
922.7714,99.2449
923.7357,99.3503
924.6999,99.4446
925.6641,99.5256
926.6284,99.5926
927.5926,99.6463
928.5568,99.6889
929.5211,99.7246
930.4853,99.7579
931.4495,99.7911
932.4138,99.8213
933.3780,99.8414
934.3422,99.8435
935.3065,99.8237
936.2707,99.7846
937.2349,99.7695
938.1992,99.8249
939.1634,99.8825
940.1276,99.9433
941.0919,100.006
942.0561,100.071
943.0203,100.139
943.9846,100.208
944.9488,100.278
945.9130,100.342
946.8773,100.394
947.8415,100.431
948.8057,100.453
949.7700,100.468
950.7342,100.483
951.6984,100.502
952.6627,100.527
953.6269,100.549
954.5911,100.563
955.5554,100.563
956.5196,100.55
957.4838,100.527
958.4481,100.502
959.4123,100.48
960.3765,100.463
961.3408,100.446
962.3050,100.426
963.2692,100.4
964.2335,100.372
965.1977,100.349
966.1619,100.339
967.1262,100.345
968.0904,100.367
969.0546,100.396
970.0189,100.425
970.9831,100.448
971.9473,100.462
972.9116,100.468
973.8758,100.471
974.8400,100.477
975.8043,100.486
976.7685,100.496
977.7327,100.501
978.6970,100.492
979.6612,100.463
980.6254,100.411
981.5897,100.34
982.5539,100.258
983.5181,100.173
984.4824,100.087
985.4466,99.9996
986.4108,99.9051
987.3751,99.7996
988.3393,99.6817
989.3035,99.553
990.2678,99.4152
991.2320,99.2674
992.1962,99.106
993.1605,98.9259
994.1247,98.7241
995.0889,98.5014
996.0532,98.2621
997.0174,98.0113
997.9816,97.752
998.9459,97.484
999.9101,97.204
1000.8743,96.9075
1001.8386,96.5906
1002.8028,96.2507
1003.7670,95.8871
1004.7313,95.5009
1005.6955,95.0945
1006.6597,94.6709
1007.6240,94.2322
1008.5882,93.7796
1009.5524,93.3132
1010.5167,92.8337
1011.4809,92.3431
1012.4451,91.8453
1013.4094,91.3456
1014.3736,90.8495
1015.3378,90.3617
1016.3021,89.8859
1017.2663,89.424
1018.2305,88.977
1019.1948,88.5454
1020.1590,88.1306
1021.1232,87.7359
1022.0875,87.3671
1023.0517,87.0302
1024.0160,86.7293
1024.9802,86.4637
1025.9445,86.23
1026.9087,86.0254
1027.8729,85.8537
1028.8372,85.7281
1029.8014,85.6682
1030.7656,85.6941
1031.7299,85.8196
1032.6941,86.049
1033.6583,86.3778
1034.6226,86.7961
1035.5868,87.2912
1036.5510,87.8482
1037.5153,88.449
1038.4795,89.0721
1039.4437,89.6943
1040.4080,90.2952
1041.3722,90.8614
1042.3364,91.3876
1043.3007,91.876
1044.2649,92.3325
1045.2291,92.7643
1046.1934,93.1784
1047.1576,93.5809
1048.1218,93.9767
1049.0861,94.3692
1050.0503,94.7601
1051.0145,95.1505
1051.9788,95.542
1052.9430,95.9365
1053.9072,96.3354
1054.8715,96.7365
1055.8357,97.1333
1056.7999,97.515
1057.7642,97.8712
1058.7284,98.1965
1059.6926,98.4937
1060.6569,98.7722
1061.6211,99.0426
1062.5853,99.3099
1063.5496,99.5697
1064.5138,99.8085
1065.4780,99.9143
1066.4423,99.9119
1067.4065,99.8529
1068.3707,99.7423
1069.3350,99.5892
1070.2992,99.4023
1071.2634,99.1884
1072.2277,98.9532
1073.1919,98.7034
1074.1561,98.4459
1075.1204,98.1853
1076.0846,97.9216
1077.0488,97.6506
1078.0131,97.3679
1078.9773,97.0737
1079.9415,96.7744
1080.9058,96.4807
1081.8700,96.2016
1082.8342,95.9402
1083.7985,95.692
1084.7627,95.4483
1085.7269,95.2024
1086.6912,94.9536
1087.6554,94.7086
1088.6196,94.4786
1089.5839,94.2742
1090.5481,94.1011
1091.5123,93.9589
1092.4766,93.8433
1093.4408,93.7489
1094.4050,93.672
1095.3693,93.6097
1096.3335,93.5572
1097.2977,93.5041
1098.2620,93.4335
1099.2262,93.326
1100.1904,93.1655
1101.1547,92.9454
1102.1189,92.6701
1103.0831,92.3514
1104.0474,92.0023
1105.0116,91.6324
1105.9758,91.2467
1106.9401,90.8498
1107.9043,90.4497
1108.8685,90.0602
1109.8328,89.6985
1110.7970,89.3811
1111.7612,89.1206
1112.7255,88.9236
1113.6897,88.7923
1114.6539,88.7259
1115.6182,88.7223
1116.5824,88.7777
1117.5466,88.8869
1118.5109,89.0441
1119.4751,89.2441
1120.4393,89.4851
1121.4036,89.7691
1122.3678,90.1019
1123.3320,90.4899
1124.2963,90.9378
1125.2605,91.4457
1126.2247,92.0079
1127.1890,92.6139
1128.1532,93.2501
1129.1174,93.9024
1130.0817,94.5575
1131.0459,95.203
1132.0101,95.8263
1132.9744,96.4133
1133.9386,96.9478
1134.9028,97.4142
1135.8671,97.8002
1136.8313,98.101
1137.7955,98.3194
1138.7598,98.4645
1139.7240,98.548
1140.6882,98.5807
1141.6525,98.5709
1142.6167,98.5248
1143.5809,98.4487
1144.5452,98.35
1145.5094,98.2374
1146.4736,98.1203
1147.4379,98.0069
1148.4021,97.9037
1149.3663,97.8161
1150.3306,97.749
1151.2948,97.7075
1152.2590,97.6969
1153.2233,97.7208
1154.1875,97.7809
1155.1517,97.8754
1156.1160,98
1157.0802,98.149
1158.0444,98.3164
1159.0087,98.4967
1159.9729,98.6847
1160.9371,98.8755
1161.9014,99.0637
1162.8656,99.2437
1163.8298,99.4095
1164.7941,99.5545
1165.7583,99.6724
1166.7225,99.7577
1167.6868,99.8065
1168.6510,99.817
1169.6152,99.7891
1170.5795,99.7233
1171.5437,99.6195
1172.5079,99.4778
1173.4722,99.2987
1174.4364,99.0847
1175.4006,98.8397
1176.3649,98.5689
1177.3291,98.2748
1178.2933,97.9593
1179.2576,97.6234
1180.2218,97.2689
1181.1860,96.8992
1182.1503,96.5193
1183.1145,96.1347
1184.0787,95.7508
1185.0430,95.3719
1186.0072,95.0011
1186.9714,94.6407
1187.9357,94.2911
1188.8999,93.9509
1189.8641,93.6169
1190.8284,93.2851
1191.7926,92.9516
1192.7568,92.613
1193.7211,92.2672
1194.6853,91.9128
1195.6495,91.549
1196.6138,91.1753
1197.5780,90.7916
1198.5422,90.3982
1199.5065,89.9419
1200.4707,89.5394
1201.4349,89.1344
1202.3992,88.7325
1203.3634,88.3412
1204.3276,87.9689
1205.2919,87.6226
1206.2561,87.3077
1207.2203,87.027
1208.1846,86.7813
1209.1488,86.5707
1210.1130,86.3949
1211.0773,86.2542
1212.0415,86.1493
1213.0057,86.0813
1213.9700,86.0512
1214.9342,86.0593
1215.8984,86.105
1216.8627,86.1856
1217.8269,86.2969
1218.7911,86.4348
1219.7554,86.5953
1220.7196,86.7752
1221.6838,86.9714
1222.6481,87.1795
1223.6123,87.3932
1224.5765,87.6051
1225.5408,87.808
1226.5050,87.9965
1227.4692,88.1683
1228.4335,88.3232
1229.3977,88.4629
1230.3619,88.5897
1231.3262,88.7066
1232.2904,88.8169
1233.2546,88.924
1234.2189,89.0303
1235.1831,89.1366
1236.1473,89.2422
1237.1116,89.3462
1238.0758,89.4484
1239.0400,89.5493
1240.0043,89.65
1240.9685,89.7503
1241.9327,89.8482
1242.8970,89.9398
1243.8612,90.0204
1244.8254,90.0862
1245.7897,90.1339
1246.7539,90.1611
1247.7181,90.1648
1248.6824,90.1411
1249.6466,90.0861
1250.6108,89.9961
1251.5751,89.8702
1252.5393,89.7101
1253.5035,89.521
1254.4678,89.3096
1255.4320,89.0827
1256.3962,88.8451
1257.3605,88.5997
1258.3247,88.3484
1259.2889,88.0942
1260.2532,87.8427
1261.2174,87.6014
1262.1816,87.3781
1263.1459,87.1791
1264.1101,87.0089
1265.0743,86.8711
1266.0386,86.7705
1267.0028,86.713
1267.9670,86.7056
1268.9313,86.7535
1269.8955,86.8584
1270.8597,87.0171
1271.8240,87.2223
1272.7882,87.4646
1273.7524,87.7355
1274.7167,88.0288
1275.6809,88.3413
1276.6451,88.6703
1277.6094,89.013
1278.5736,89.3646
1279.5378,89.7191
1280.5021,90.07
1281.4663,90.4118
1282.4305,90.7415
1283.3948,91.0583
1284.3590,91.363
1285.3232,91.6568
1286.2875,91.9394
1287.2517,92.2085
1288.2159,92.4597
1289.1802,92.689
1290.1444,92.8942
1291.1086,93.076
1292.0729,93.2371
1293.0371,93.3806
1294.0013,93.5092
1294.9656,93.6241
1295.9298,93.7263
1296.8940,93.8167
1297.8583,93.8965
1298.8225,93.9666
1299.7867,94.0277
1300.7510,94.0798
1301.7152,94.1234
1302.6794,94.1594
1303.6437,94.1892
1304.6079,94.2146
1305.5721,94.2369
1306.5364,94.2558
1307.5006,94.2703
1308.4648,94.2794
1309.4291,94.2827
1310.3933,94.2809
1311.3575,94.2756
1312.3218,94.2681
1313.2860,94.2592
1314.2502,94.2494
1315.2145,94.2388
1316.1787,94.2277
1317.1429,94.2167
1318.1072,94.2056
1319.0714,94.1946
1320.0356,94.1846
1320.9999,94.1775
1321.9641,94.1757
1322.9283,94.1817
1323.8926,94.1971
1324.8568,94.2235
1325.8210,94.2626
1326.7853,94.3168
1327.7495,94.3891
1328.7137,94.4826
1329.6780,94.5987
1330.6422,94.7356
1331.6064,94.887
1332.5707,95.0434
1333.5349,95.1966
1334.4991,95.3441
1335.4634,95.4922
1336.4276,95.6544
1337.3918,95.8434
1338.3561,96.0588
1339.3203,96.2827
1340.2845,96.4912
1341.2488,96.6713
1342.2130,96.8244
1343.1772,96.9582
1344.1415,97.0795
1345.1057,97.1919
1346.0699,97.2946
1347.0342,97.3838
1347.9984,97.4559
1348.9626,97.51
1349.9269,97.5483
1350.8911,97.5751
1351.8553,97.5952
1352.8196,97.6128
1353.7838,97.6302
1354.7480,97.6462
1355.7123,97.6555
1356.6765,97.6514
1357.6407,97.6299
1358.6050,97.5938
1359.5692,97.5531
1360.5334,97.5187
1361.4977,97.4933
1362.4619,97.469
1363.4261,97.4378
1364.3904,97.4003
1365.3546,97.3621
1366.3188,97.3275
1367.2831,97.299
1368.2473,97.2783
1369.2115,97.2679
1370.1758,97.2735
1371.1400,97.3077
1372.1042,97.3877
1373.0685,97.5253
1374.0327,97.7121
1374.9969,97.9191
1375.9612,98.1155
1376.9254,98.2893
1377.8896,98.4478
1378.8539,98.6042
1379.8181,98.7648
1380.7823,98.9223
1381.7466,99.0608
1382.7108,99.168
1383.6750,99.2469
1384.6393,99.3168
1385.6035,99.4013
1386.5677,99.509
1387.5320,99.6251
1388.4962,99.726
1389.4604,99.7978
1390.4247,99.839
1391.3889,99.8572
1392.3531,99.8676
1393.3174,99.8851
1394.2816,99.9127
1395.2458,99.9375
1396.2101,99.9436
1397.1743,99.9261
1398.1385,99.8913
1399.1028,99.8456
1400.0670,99.7896
1401.0313,99.6984
1401.9955,99.5823
1402.9597,99.4423
1403.9240,99.2754
1404.8882,99.0788
1405.8524,98.8527
1406.8167,98.5999
1407.7809,98.3205
1408.7451,98.0073
1409.7094,97.6506
1410.6736,97.2482
1411.6378,96.8124
1412.6021,96.3648
1413.5663,95.9197
1414.5305,95.4747
1415.4948,95.0165
1416.4590,94.5344
1417.4232,94.0315
1418.3875,93.5383
1419.3517,93.1133
1420.3159,92.8041
1421.2802,92.6069
1422.2444,92.4819
1423.2086,92.391
1424.1729,92.3159
1425.1371,92.2556
1426.1013,92.221
1427.0656,92.2308
1428.0298,92.3058
1428.9940,92.4549
1429.9583,92.6587
1430.9225,92.8715
1431.8867,93.0475
1432.8510,93.1669
1433.8152,93.2412
1434.7794,93.2971
1435.7437,93.3439
1436.7079,93.3544
1437.6721,93.2938
1438.6364,93.1533
1439.6006,92.9328
1440.5648,92.6245
1441.5291,92.2238
1442.4933,91.7418
1443.4575,91.203
1444.4218,90.6328
1445.3860,90.0469
1446.3502,89.4548
1447.3145,88.8748
1448.2787,88.3449
1449.2429,87.9075
1450.2072,87.5778
1451.1714,87.3315
1452.1356,87.1259
1453.0999,86.9324
1454.0641,86.7584
1455.0283,86.6447
1455.9926,86.61
1456.9568,86.5761
1457.9210,86.4681
1458.8853,86.3543
1459.8495,86.2962
1460.8137,86.2778
1461.7780,86.2905
1462.7422,86.3843
1463.7064,86.649
1464.6707,87.1339
1465.6349,87.7725
1466.5991,88.4269
1467.5634,89.0027
1468.5276,89.4939
1469.4918,89.9648
1470.4561,90.5235
1471.4203,91.2703
1472.3845,92.1847
1473.3488,93.0618
1474.3130,93.7004
1475.2772,94.0975
1476.2415,94.3491
1477.2057,94.5159
1478.1699,94.613
1479.1342,94.6381
1480.0984,94.5882
1481.0626,94.4646
1482.0269,94.274
1482.9911,94.0281
1483.9553,93.7414
1484.9196,93.4281
1485.8838,93.0997
1486.8480,92.7563
1487.8123,92.3741
1488.7765,91.9164
1489.7407,91.3991
1490.7050,90.9063
1491.6692,90.4911
1492.6334,90.1316
1493.5977,89.7791
1494.5619,89.4005
1495.5261,88.9858
1496.4904,88.5397
1497.4546,88.0828
1498.4188,87.658
1499.3831,87.3007
1500.3473,86.9999
1501.3115,86.7108
1502.2758,86.3937
1503.2400,86.0364
1504.2042,85.6551
1505.1685,85.264
1506.1327,84.8031
1507.0969,84.1752
1508.0612,83.5408
1509.0254,83.1589
1509.9896,83.0111
1510.9539,82.9685
1511.9181,82.9719
1512.8823,83.0516
1513.8466,83.2924
1514.8108,83.7734
1515.7750,84.4997
1516.7393,85.3852
1517.7035,86.3332
1518.6677,87.3439
1519.6320,88.5219
1520.5962,89.9418
1521.5604,91.4967
1522.5247,92.9444
1523.4889,94.1254
1524.4531,95.0644
1525.4174,95.8739
1526.3816,96.6233
1527.3458,97.2955
1528.3101,97.837
1529.2743,98.2274
1530.2385,98.5066
1531.2028,98.757
1532.1670,99.0472
1533.1312,99.3657
1534.0955,99.6201
1535.0597,99.7279
1536.0239,99.6815
1536.9882,99.5444
1537.9524,99.4416
1538.9166,99.5422
1539.8809,99.9264
1540.8451,100.35
1541.8093,100.484
1542.7736,100.394
1543.7378,100.27
1544.7020,100.172
1545.6663,100.09
1546.6305,100.051
1547.5947,100.006
1548.5590,99.9527
1549.5232,99.892
1550.4874,99.8224
1551.4517,99.7396
1552.4159,99.6356
1553.3801,99.5028
1554.3444,99.3408
1555.3086,99.1719
1556.2728,99.0525
1557.2371,99.0316
1558.2013,99.0144
1559.1655,98.8418
1560.1298,98.6354
1561.0940,98.5439
1562.0582,98.5203
1563.0225,98.4741
1563.9867,98.3617
1564.9509,98.1862
1565.9152,97.9742
1566.8794,97.7501
1567.8436,97.5159
1568.8079,97.2551
1569.7721,96.966
1570.7363,96.6743
1571.7006,96.398
1572.6648,96.125
1573.6290,95.8279
1574.5933,95.4777
1575.5575,95.0522
1576.5217,94.5687
1577.4860,94.1036
1578.4502,93.7141
1579.4144,93.3764
1580.3787,93.0322
1581.3429,92.6471
1582.3071,92.2259
1583.2714,91.7985
1584.2356,91.3942
1585.1998,91.0242
1586.1641,90.6829
1587.1283,90.363
1588.0925,90.0665
1589.0568,89.8023
1590.0210,89.5782
1590.9852,89.3948
1591.9495,89.248
1592.9137,89.1333
1593.8779,89.047
1594.8422,88.9847
1595.8064,88.9407
1596.7706,88.9113
1597.7349,88.8969
1598.6991,88.9011
1599.6633,88.9271
1600.6276,88.9755
1601.5918,89.0434
1602.5560,89.1258
1603.5203,89.2181
1604.4845,89.3161
1605.4487,89.4175
1606.4130,89.5235
1607.3772,89.6395
1608.3414,89.771
1609.3057,89.9164
1610.2699,90.0626
1611.2341,90.1915
1612.1984,90.2954
1613.1626,90.3935
1614.1268,90.5412
1615.0911,90.8084
1616.0553,91.2102
1617.0195,91.6593
1617.9838,92.0466
1618.9480,92.3411
1619.9122,92.5767
1620.8765,92.8066
1621.8407,93.0755
1622.8049,93.3907
1623.7692,93.711
1624.7334,93.9837
1625.6976,94.1963
1626.6619,94.3756
1627.6261,94.5489
1628.5903,94.7159
1629.5546,94.8515
1630.5188,94.9278
1631.4830,94.9377
1632.4473,94.9087
1633.4115,94.9055
1634.3757,95.0008
1635.3400,95.1943
1636.3042,95.3799
1637.2684,95.4843
1638.2327,95.5343
1639.1969,95.5616
1640.1611,95.5651
1641.1254,95.5332
1642.0896,95.4633
1643.0538,95.3723
1644.0181,95.299
1644.9823,95.285
1645.9465,95.3246
1646.9108,95.3472
1647.8750,95.297
1648.8392,95.1764
1649.8035,95.0099
1650.7677,94.8392
1651.7319,94.7288
1652.6962,94.694
1653.6604,94.6497
1654.6246,94.5866
1655.5889,94.5732
1656.5531,94.5901
1657.5173,94.5803
1658.4816,94.5192
1659.4458,94.4202
1660.4100,94.3133
1661.3743,94.2186
1662.3385,94.1339
1663.3027,94.0502
1664.2670,93.9649
1665.2312,93.878
1666.1954,93.7928
1667.1597,93.7224
1668.1239,93.6814
1669.0881,93.6642
1670.0524,93.6407
1671.0166,93.5893
1671.9808,93.5137
1672.9451,93.4268
1673.9093,93.3426
1674.8735,93.2771
1675.8378,93.2434
1676.8020,93.242
1677.7662,93.2549
1678.7305,93.2536
1679.6947,93.2177
1680.6589,93.152
1681.6232,93.0891
1682.5874,93.06
1683.5516,93.0463
1684.5159,93.0071
1685.4801,92.9622
1686.4443,92.9449
1687.4086,92.9417
1688.3728,92.9197
1689.3370,92.8586
1690.3013,92.7552
1691.2655,92.6171
1692.2297,92.4572
1693.1940,92.2919
1694.1582,92.1399
1695.1224,92.0153
1696.0867,91.9162
1697.0509,91.817
1698.0151,91.6837
1698.9794,91.5113
1699.9436,91.3439
1700.9078,91.2376
1701.8721,91.2094
1702.8363,91.2308
1703.8005,91.2577
1704.7648,91.2563
1705.7290,91.2159
1706.6932,91.1495
1707.6575,91.0831
1708.6217,91.0364
1709.5859,91.0116
1710.5502,90.9985
1711.5144,90.9864
1712.4786,90.9735
1713.4429,90.9729
1714.4071,91.0133
1715.3713,91.1229
1716.3356,91.2887
1717.2998,91.4507
1718.2640,91.5817
1719.2283,91.7104
1720.1925,91.859
1721.1567,92.0238
1722.1210,92.1941
1723.0852,92.3621
1724.0494,92.5239
1725.0137,92.6795
1725.9779,92.8326
1726.9421,92.9862
1727.9064,93.1366
1728.8706,93.2752
1729.8348,93.3998
1730.7991,93.5305
1731.7633,93.7108
1732.7275,93.9749
1733.6918,94.2974
1734.6560,94.6119
1735.6202,94.8818
1736.5845,95.1126
1737.5487,95.3254
1738.5129,95.544
1739.4772,95.7859
1740.4414,96.0484
1741.4056,96.3087
1742.3699,96.5436
1743.3341,96.7462
1744.2983,96.9226
1745.2626,97.0818
1746.2268,97.232
1747.1910,97.3813
1748.1553,97.5337
1749.1195,97.6821
1750.0837,97.8123
1751.0480,97.9207
1752.0122,98.0165
1752.9764,98.1083
1753.9407,98.1995
1754.9049,98.2909
1755.8691,98.3804
1756.8334,98.4624
1757.7976,98.5317
1758.7618,98.5899
1759.7261,98.6468
1760.6903,98.7123
1761.6545,98.7868
1762.6188,98.8604
1763.5830,98.9217
1764.5472,98.9663
1765.5115,98.9976
1766.4757,99.0248
1767.4399,99.0598
1768.4042,99.1143
1769.3684,99.197
1770.3326,99.3076
1771.2969,99.4288
1772.2611,99.5319
1773.2253,99.6007
1774.1896,99.6434
1775.1538,99.6744
1776.1180,99.7012
1777.0823,99.7275
1778.0465,99.7579
1779.0107,99.795
1779.9750,99.8349
1780.9392,99.8698
1781.9034,99.8959
1782.8677,99.9168
1783.8319,99.9396
1784.7961,99.9666
1785.7604,99.993
1786.7246,100.01
1787.6888,100.012
1788.6531,100.005
1789.6173,100.006
1790.5815,100.036
1791.5458,100.094
1792.5100,100.157
1793.4742,100.201
1794.4385,100.224
1795.4027,100.233
1796.3669,100.233
1797.3312,100.231
1798.2954,100.234
1799.2596,100.247
1800.2239,100.267
1801.1881,100.284
1802.1523,100.293
1803.1166,100.296
1804.0808,100.295
1805.0450,100.291
1806.0093,100.286
1806.9735,100.285
1807.9377,100.291
1808.9020,100.306
1809.8662,100.326
1810.8304,100.344
1811.7947,100.354
1812.7589,100.354
1813.7231,100.347
1814.6874,100.337
1815.6516,100.33
1816.6158,100.327
1817.5801,100.328
1818.5443,100.328
1819.5085,100.323
1820.4728,100.311
1821.4370,100.295
1822.4012,100.279
1823.3655,100.267
1824.3297,100.261
1825.2939,100.26
1826.2582,100.265
1827.2224,100.279
1828.1866,100.3
1829.1509,100.319
1830.1151,100.326
1831.0793,100.315
1832.0436,100.293
1833.0078,100.27
1833.9720,100.25
1834.9363,100.237
1835.9005,100.228
1836.8647,100.219
1837.8290,100.201
1838.7932,100.169
1839.7574,100.126
1840.7217,100.08
1841.6859,100.049
1842.6501,100.047
1843.6144,100.072
1844.5786,100.104
1845.5428,100.122
1846.5071,100.122
1847.4713,100.109
1848.4355,100.089
1849.3998,100.064
1850.3640,100.045
1851.3282,100.037
1852.2925,100.031
1853.2567,100.028
1854.2209,100.026
1855.1852,100.025
1856.1494,100.025
1857.1136,100.025
1858.0779,100.024
1859.0421,100.023
1860.0063,100.022
1860.9706,100.02
1861.9348,100.017
1862.8990,100.015
1863.8633,100.015
1864.8275,100.021
1865.7917,100.039
1866.7560,100.071
1867.7202,100.107
1868.6844,100.128
1869.6487,100.126
1870.6129,100.111
1871.5771,100.094
1872.5414,100.082
1873.5056,100.074
1874.4698,100.071
1875.4341,100.07
1876.3983,100.071
1877.3625,100.072
1878.3268,100.073
1879.2910,100.073
1880.2552,100.075
1881.2195,100.078
1882.1837,100.081
1883.1479,100.082
1884.1122,100.08
1885.0764,100.076
1886.0406,100.075
1887.0049,100.079
1887.9691,100.09
1888.9333,100.105
1889.8976,100.118
1890.8618,100.124
1891.8260,100.127
1892.7903,100.128
1893.7545,100.131
1894.7188,100.134
1895.6830,100.137
1896.6472,100.136
1897.6115,100.132
1898.5757,100.125
1899.5399,100.119
1900.5042,100.115
1901.4684,100.115
1902.4326,100.116
1903.3969,100.119
1904.3611,100.122
1905.3253,100.126
1906.2896,100.133
1907.2538,100.144
1908.2180,100.156
1909.1823,100.166
1910.1465,100.17
1911.1107,100.165
1912.0750,100.153
1913.0392,100.137
1914.0034,100.121
1914.9677,100.109
1915.9319,100.104
1916.8961,100.107
1917.8604,100.113
1918.8246,100.122
1919.7888,100.132
1920.7531,100.145
1921.7173,100.158
1922.6815,100.169
1923.6458,100.173
1924.6100,100.169
1925.5742,100.159
1926.5385,100.147
1927.5027,100.139
1928.4669,100.134
1929.4312,100.134
1930.3954,100.134
1931.3596,100.133
1932.3239,100.132
1933.2881,100.131
1934.2523,100.13
1935.2166,100.131
1936.1808,100.133
1937.1450,100.134
1938.1093,100.136
1939.0735,100.141
1940.0377,100.153
1941.0020,100.171
1941.9662,100.191
1942.9304,100.205
1943.8947,100.209
1944.8589,100.203
1945.8231,100.192
1946.7874,100.179
1947.7516,100.167
1948.7158,100.157
1949.6801,100.15
1950.6443,100.146
1951.6085,100.146
1952.5728,100.148
1953.5370,100.151
1954.5012,100.152
1955.4655,100.152
1956.4297,100.149
1957.3939,100.147
1958.3582,100.146
1959.3224,100.149
1960.2866,100.154
1961.2509,100.159
1962.2151,100.164
1963.1793,100.169
1964.1436,100.176
1965.1078,100.185
1966.0720,100.194
1967.0363,100.199
1968.0005,100.197
1968.9647,100.189
1969.9290,100.18
1970.8932,100.173
1971.8574,100.171
1972.8217,100.173
1973.7859,100.177
1974.7501,100.18
1975.7144,100.18
1976.6786,100.177
1977.6428,100.175
1978.6071,100.173
1979.5713,100.172
1980.5355,100.171
1981.4998,100.171
1982.4640,100.172
1983.4282,100.175
1984.3925,100.181
1985.3567,100.188
1986.3209,100.195
1987.2852,100.2
1988.2494,100.202
1989.2136,100.203
1990.1779,100.204
1991.1421,100.204
1992.1063,100.203
1993.0706,100.2
1994.0348,100.197
1994.9990,100.194
1995.9633,100.191
1996.9275,100.189
1997.8917,100.189
1998.8560,100.187
1999.8202,100.185
2000.7844,100.182
2001.7487,100.177
2002.7129,100.173
2003.6771,100.17
2004.6414,100.169
2005.6056,100.17
2006.5698,100.172
2007.5341,100.173
2008.4983,100.171
2009.4625,100.165
2010.4268,100.155
2011.3910,100.145
2012.3552,100.139
2013.3195,100.14
2014.2837,100.15
2015.2479,100.165
2016.2122,100.179
2017.1764,100.188
2018.1406,100.188
2019.1049,100.179
2020.0691,100.167
2021.0333,100.154
2021.9976,100.145
2022.9618,100.14
2023.9260,100.138
2024.8903,100.137
2025.8545,100.135
2026.8187,100.132
2027.7830,100.128
2028.7472,100.125
2029.7114,100.121
2030.6757,100.118
2031.6399,100.116
2032.6041,100.114
2033.5684,100.113
2034.5326,100.113
2035.4968,100.115
2036.4611,100.118
2037.4253,100.122
2038.3895,100.126
2039.3538,100.127
2040.3180,100.125
2041.2822,100.121
2042.2465,100.116
2043.2107,100.11
2044.1749,100.104
2045.1392,100.099
2046.1034,100.095
2047.0676,100.091
2048.0320,100.087
2048.9961,100.084
2049.9604,100.082
2050.9246,100.08
2051.8889,100.08
2052.8530,100.079
2053.8174,100.077
2054.7815,100.074
2055.7458,100.07
2056.7100,100.067
2057.6743,100.065
2058.6384,100.064
2059.6028,100.065
2060.5669,100.069
2061.5313,100.075
2062.4954,100.083
2063.4597,100.091
2064.4238,100.097
2065.3882,100.099
2066.3523,100.097
2067.3167,100.093
2068.2808,100.087
2069.2451,100.082
2070.2092,100.08
2071.1736,100.08
2072.1377,100.082
2073.1021,100.086
2074.0662,100.091
2075.0305,100.095
2075.9946,100.097
2076.9590,100.097
2077.9231,100.094
2078.8875,100.089
2079.8516,100.085
2080.8159,100.084
2081.7800,100.086
2082.7444,100.093
2083.7085,100.101
2084.6729,100.111
2085.6370,100.12
2086.6013,100.127
2087.5654,100.132
2088.5298,100.134
2089.4939,100.133
2090.4583,100.13
2091.4224,100.125
2092.3867,100.121
2093.3508,100.118
2094.3152,100.119
2095.2793,100.121
2096.2437,100.125
2097.2078,100.127
2098.1721,100.126
2099.1362,100.123
2100.1006,100.12
2101.0647,100.12
2102.0291,100.123
2102.9932,100.13
2103.9575,100.136
2104.9216,100.14
2105.8860,100.141
2106.8501,100.138
2107.8145,100.134
2108.7786,100.132
2109.7429,100.132
2110.7070,100.135
2111.6714,100.138
2112.6355,100.14
2113.5999,100.14
2114.5640,100.139
2115.5283,100.135
2116.4924,100.13
2117.4568,100.126
2118.4209,100.122
2119.3853,100.12
2120.3494,100.118
2121.3137,100.117
2122.2778,100.116
2123.2422,100.115
2124.2063,100.115
2125.1707,100.115
2126.1348,100.116
2127.0991,100.116
2128.0632,100.117
2129.0276,100.117
2129.9917,100.118
2130.9561,100.118
2131.9202,100.12
2132.8845,100.122
2133.8486,100.125
2134.8130,100.129
2135.7771,100.132
2136.7415,100.135
2137.7056,100.135
2138.6699,100.134
2139.6340,100.131
2140.5984,100.128
2141.5625,100.126
2142.5269,100.124
2143.4910,100.124
2144.4553,100.123
2145.4194,100.121
2146.3838,100.12
2147.3479,100.121
2148.3123,100.124
2149.2764,100.129
2150.2407,100.135
2151.2048,100.139
2152.1692,100.142
2153.1333,100.143
2154.0977,100.143
2155.0618,100.143
2156.0261,100.142
2156.9902,100.141
2157.9546,100.141
2158.9187,100.142
2159.8831,100.145
2160.8472,100.149
2161.8115,100.152
2162.7756,100.154
2163.7400,100.154
2164.7041,100.154
2165.6685,100.155
2166.6326,100.158
2167.5969,100.161
2168.5610,100.163
2169.5254,100.164
2170.4895,100.163
2171.4539,100.161
2172.4180,100.16
2173.3823,100.161
2174.3464,100.163
2175.3108,100.166
2176.2749,100.166
2177.2393,100.165
2178.2034,100.161
2179.1677,100.158
2180.1318,100.157
2181.0962,100.159
2182.0603,100.164
2183.0247,100.169
2183.9888,100.174
2184.9531,100.177
2185.9172,100.178
2186.8816,100.179
2187.8457,100.178
2188.8101,100.179
2189.7742,100.18
2190.7385,100.182
2191.7026,100.183
2192.6670,100.185
2193.6311,100.185
2194.5955,100.185
2195.5596,100.186
2196.5239,100.188
2197.4880,100.19
2198.4524,100.19
2199.4165,100.189
2200.3809,100.187
2201.3450,100.185
2202.3093,100.183
2203.2734,100.184
2204.2378,100.186
2205.2019,100.187
2206.1663,100.187
2207.1304,100.186
2208.0947,100.185
2209.0588,100.185
2210.0232,100.187
2210.9873,100.19
2211.9517,100.193
2212.9158,100.193
2213.8801,100.19
2214.8442,100.185
2215.8086,100.179
2216.7727,100.174
2217.7371,100.172
2218.7012,100.174
2219.6655,100.177
2220.6296,100.18
2221.5940,100.179
2222.5581,100.175
2223.5225,100.168
2224.4866,100.16
2225.4509,100.154
2226.4150,100.151
2227.3794,100.149
2228.3435,100.148
2229.3079,100.146
2230.2720,100.141
2231.2363,100.136
2232.2004,100.133
2233.1648,100.133
2234.1289,100.135
2235.0933,100.137
2236.0574,100.136
2237.0217,100.132
2237.9858,100.125
2238.9502,100.117
2239.9143,100.11
2240.8787,100.105
2241.8428,100.101
2242.8071,100.099
2243.7712,100.097
2244.7356,100.097
2245.6997,100.098
2246.6641,100.1
2247.6282,100.102
2248.5925,100.102
2249.5566,100.099
2250.5210,100.091
2251.4851,100.08
2252.4495,100.068
2253.4136,100.056
2254.3779,100.047
2255.3420,100.039
2256.3064,100.032
2257.2705,100.027
2258.2349,100.022
2259.1990,100.018
2260.1633,100.014
2261.1274,100.011
2262.0918,100.007
2263.0559,100.003
2264.0203,99.9989
2264.9844,99.9946
2265.9487,99.9906
2266.9128,99.987
2267.8772,99.9833
2268.8413,99.9789
2269.8057,99.9727
2270.7698,99.9643
2271.7341,99.9548
2272.6982,99.9462
2273.6626,99.9413
2274.6267,99.9413
2275.5911,99.9458
2276.5552,99.9522
2277.5195,99.9571
2278.4836,99.9582
2279.4480,99.9548
2280.4121,99.948
2281.3765,99.939
2282.3406,99.9281
2283.3049,99.9017
2284.2690,99.8712
2285.2334,99.836
2286.1975,99.7969
2287.1619,99.7551
2288.1260,99.7117
2289.0903,99.6672
2290.0544,99.6212
2291.0188,99.573
2291.9829,99.5228
2292.9473,99.4711
2293.9114,99.4191
2294.8757,99.3677
2295.8398,99.3171
2296.8042,99.2673
2297.7683,99.2171
2298.7327,99.1651
2299.6968,99.1087
2300.6611,99.0451
2301.6252,98.9719
2302.5896,98.8879
2303.5537,98.7948
2304.5181,98.6963
2305.4822,98.5974
2306.4465,98.5022
2307.4106,98.4125
2308.3750,98.3279
2309.3391,98.2466
2310.3035,98.1669
2311.2676,98.0881
2312.2319,98.0094
2313.1960,97.9288
2314.1604,97.843
2315.1245,97.7491
2316.0889,97.6471
2317.0530,97.5415
2318.0173,97.4406
2318.9814,97.3529
2319.9458,97.2835
2320.9099,97.2331
2321.8743,97.1996
2322.8384,97.1821
2323.8027,97.1819
2324.7668,97.1994
2325.7312,97.2313
2326.6953,97.2692
2327.6597,97.3031
2328.6238,97.3258
2329.5881,97.3366
2330.5522,97.3414
2331.5166,97.3481
2332.4807,97.361
2333.4451,97.3785
2334.4092,97.3968
2335.3735,97.4145
2336.3376,97.434
2337.3020,97.4587
2338.2661,97.4902
2339.2305,97.5268
2340.1946,97.5635
2341.1589,97.587
2342.1230,97.5708
2343.0874,97.489
2344.0515,97.3575
2345.0159,97.2397
2345.9800,97.1809
2346.9443,97.1652
2347.9084,97.1424
2348.8728,97.0755
2349.8369,96.9684
2350.8013,96.8721
2351.7654,96.8713
2352.7297,97.0442
2353.6938,97.4041
2354.6582,97.8748
2355.6223,98.3517
2356.5867,98.7837
2357.5508,99.1714
2358.5151,99.5063
2359.4792,99.743
2360.4436,99.851
2361.4077,99.807
2362.3721,99.6127
2363.3362,99.3036
2364.3005,98.9259
2365.2646,98.5304
2366.2290,98.1592
2367.1931,97.8353
2368.1575,97.564
2369.1216,97.3444
2370.0859,97.1779
2371.0500,97.07
2372.0144,97.0264
2372.9785,97.049
2373.9429,97.1339
2374.9070,97.2717
2375.8713,97.4492
2376.8354,97.6519
2377.7998,97.8663
2378.7639,98.0813
2379.7283,98.2887
2380.6924,98.4832
2381.6567,98.6606
2382.6208,98.8181
2383.5852,98.9539
2384.5493,99.0675
2385.5137,99.1597
2386.4778,99.2328
2387.4421,99.2899
2388.4063,99.3346
2389.3706,99.3699
2390.3347,99.3986
2391.2991,99.4228
2392.2632,99.4446
2393.2275,99.4658
2394.1917,99.4881
2395.1560,99.5122
2396.1201,99.5376
2397.0845,99.5624
2398.0486,99.5843
2399.0129,99.602
2399.9771,99.6156
2400.9414,99.6215
2401.9055,99.6174
2402.8699,99.6179
2403.8340,99.6235
2404.7983,99.6319
2405.7625,99.6399
2406.7268,99.6449
2407.6909,99.6461
2408.6553,99.6444
2409.6194,99.6413
2410.5837,99.6381
2411.5479,99.635
2412.5122,99.6319
2413.4763,99.6287
2414.4407,99.6257
2415.4048,99.6235
2416.3691,99.6226
2417.3333,99.6234
2418.2976,99.626
2419.2617,99.6304
2420.2261,99.6359
2421.1902,99.6413
2422.1545,99.6448
2423.1187,99.6457
2424.0830,99.6444
2425.0471,99.6431
2426.0115,99.6439
2426.9756,99.648
2427.9399,99.6545
2428.9041,99.6608
2429.8684,99.6643
2430.8325,99.664
2431.7969,99.6611
2432.7610,99.658
2433.7253,99.6571
2434.6895,99.6592
2435.6538,99.6639
2436.6179,99.6695
2437.5823,99.6746
2438.5464,99.6785
2439.5107,99.6812
2440.4749,99.6827
2441.4392,99.6836
2442.4033,99.6842
2443.3677,99.6852
2444.3318,99.6871
2445.2961,99.6899
2446.2603,99.693
2447.2246,99.6955
2448.1887,99.6969
2449.1531,99.6973
2450.1172,99.6974
2451.0815,99.6978
2452.0457,99.698
2453.0100,99.6971
2453.9741,99.6943
2454.9385,99.6899
2455.9026,99.6856
2456.8669,99.6835
2457.8311,99.6848
2458.7954,99.6889
2459.7595,99.6937
2460.7239,99.6969
2461.6880,99.6973
2462.6523,99.6955
2463.6165,99.6935
2464.5808,99.6933
2465.5449,99.6959
2466.5093,99.7008
2467.4734,99.7065
2468.4377,99.7111
2469.4019,99.7132
2470.3662,99.7122
2471.3303,99.7088
2472.2947,99.7044
2473.2588,99.7008
2474.2231,99.6999
2475.1873,99.7021
2476.1516,99.7069
2477.1157,99.7124
2478.0801,99.7168
2479.0442,99.7187
2480.0085,99.7186
2480.9727,99.7181
2481.9370,99.7193
2482.9011,99.7232
2483.8655,99.7294
2484.8296,99.7365
2485.7939,99.7426
2486.7581,99.7464
2487.7224,99.7477
2488.6865,99.7468
2489.6509,99.7446
2490.6150,99.7417
2491.5793,99.7389
2492.5435,99.7367
2493.5078,99.7355
2494.4719,99.7353
2495.4363,99.7356
2496.4004,99.7362
2497.3647,99.7368
2498.3289,99.7381
2499.2932,99.7409
2500.2573,99.7454
2501.2217,99.7508
2502.1858,99.7551
2503.1501,99.7564
2504.1143,99.7539
2505.0786,99.7491
2506.0427,99.7449
2507.0071,99.7442
2507.9712,99.7478
2508.9355,99.7545
2509.8997,99.7614
2510.8640,99.7658
2511.8281,99.7665
2512.7925,99.7643
2513.7566,99.7611
2514.7209,99.7586
2515.6851,99.7577
2516.6494,99.7586
2517.6135,99.7618
2518.5779,99.7674
2519.5420,99.7754
2520.5063,99.7844
2521.4705,99.7919
2522.4348,99.7951
2523.3989,99.7923
2524.3633,99.784
2525.3274,99.7731
2526.2917,99.7638
2527.2559,99.76
2528.2202,99.7632
2529.1843,99.7725
2530.1487,99.7848
2531.1128,99.7959
2532.0771,99.803
2533.0413,99.8051
2534.0056,99.8035
2534.9697,99.8009
2535.9341,99.7999
2536.8982,99.8017
2537.8625,99.8058
2538.8267,99.8105
2539.7910,99.8143
2540.7551,99.8165
2541.7195,99.818
2542.6836,99.8197
2543.6479,99.8228
2544.6121,99.8272
2545.5764,99.8322
2546.5405,99.8369
2547.5049,99.8404
2548.4690,99.8424
2549.4333,99.8429
2550.3975,99.8421
2551.3618,99.8405
2552.3259,99.8386
2553.2903,99.8373
2554.2544,99.8372
2555.2188,99.8387
2556.1829,99.8418
2557.1472,99.8464
2558.1113,99.8517
2559.0757,99.8569
2560.0398,99.8612
2561.0042,99.8637
2561.9683,99.8644
2562.9326,99.8637
2563.8967,99.863
2564.8611,99.8638
2565.8252,99.8672
2566.7896,99.8735
2567.7537,99.8817
2568.7180,99.89
2569.6821,99.8967
2570.6465,99.9007
2571.6106,99.9022
2572.5750,99.9022
2573.5391,99.902
2574.5034,99.9028
2575.4675,99.9048
2576.4319,99.9077
2577.3960,99.9106
2578.3604,99.9127
2579.3245,99.9134
2580.2888,99.913
2581.2529,99.9117
2582.2173,99.9102
2583.1814,99.9089
2584.1458,99.908
2585.1099,99.9074
2586.0742,99.9073
2587.0383,99.9081
2588.0027,99.9105
2588.9668,99.9152
2589.9312,99.9221
2590.8953,99.9303
2591.8596,99.9381
2592.8237,99.9436
2593.7881,99.9456
2594.7522,99.9444
2595.7166,99.9412
2596.6807,99.9381
2597.6450,99.9369
2598.6091,99.9384
2599.5735,99.9423
2600.5376,99.9476
2601.5020,99.953
2602.4661,99.9578
2603.4304,99.9616
2604.3945,99.9645
2605.3589,99.9658
2606.3230,99.9652
2607.2874,99.9627
2608.2515,99.9591
2609.2158,99.9562
2610.1799,99.956
2611.1443,99.9592
2612.1084,99.9648
2613.0728,99.9707
2614.0369,99.9751
2615.0012,99.9773
2615.9653,99.9785
2616.9297,99.9803
2617.8938,99.9837
2618.8582,99.9891
2619.8223,99.9959
2620.7866,100.004
2621.7507,100.012
2622.7151,100.021
2623.6792,100.027
2624.6436,100.029
2625.6077,100.025
2626.5720,100.014
2627.5361,100.002
2628.5005,99.9937
2629.4646,99.9918
2630.4290,99.9975
2631.3931,100.008
2632.3574,100.018
2633.3215,100.025
2634.2859,100.026
2635.2500,100.024
2636.2144,100.02
2637.1785,100.018
2638.1428,100.019
2639.1069,100.023
2640.0713,100.03
2641.0354,100.038
2641.9998,100.043
2642.9639,100.046
2643.9282,100.046
2644.8923,100.045
2645.8567,100.046
2646.8208,100.051
2647.7852,100.058
2648.7493,100.065
2649.7136,100.07
2650.6777,100.071
2651.6421,100.069
2652.6062,100.066
2653.5706,100.064
2654.5347,100.066
2655.4990,100.072
2656.4631,100.08
2657.4275,100.09
2658.3916,100.099
2659.3560,100.108
2660.3201,100.115
2661.2844,100.12
2662.2485,100.122
2663.2129,100.121
2664.1770,100.121
2665.1414,100.12
2666.1055,100.121
2667.0698,100.123
2668.0339,100.125
2668.9983,100.129
2669.9624,100.132
2670.9268,100.135
2671.8909,100.136
2672.8552,100.136
2673.8193,100.135
2674.7837,100.135
2675.7478,100.136
2676.7122,100.138
2677.6763,100.141
2678.6406,100.143
2679.6047,100.146
2680.5691,100.149
2681.5332,100.152
2682.4976,100.155
2683.4617,100.156
2684.4260,100.153
2685.3901,100.146
2686.3545,100.138
2687.3186,100.132
2688.2830,100.13
2689.2471,100.132
2690.2114,100.137
2691.1755,100.141
2692.1399,100.142
2693.1040,100.14
2694.0684,100.135
2695.0325,100.129
2695.9968,100.126
2696.9609,100.125
2697.9253,100.127
2698.8894,100.128
2699.8538,100.128
2700.8179,100.123
2701.7822,100.115
2702.7463,100.104
2703.7107,100.095
2704.6748,100.089
2705.6392,100.087
2706.6033,100.086
2707.5676,100.085
2708.5317,100.08
2709.4961,100.073
2710.4602,100.064
2711.4246,100.057
2712.3887,100.053
2713.3530,100.053
2714.3171,100.055
2715.2815,100.059
2716.2456,100.063
2717.2100,100.065
2718.1741,100.067
2719.1384,100.066
2720.1025,100.063
2721.0669,100.057
2722.0310,100.048
2722.9954,100.037
2723.9595,100.024
2724.9238,100.011
2725.8879,100
2726.8523,99.9922
2727.8164,99.9877
2728.7808,99.9866
2729.7449,99.9881
2730.7092,99.9915
2731.6733,99.996
2732.6377,100.001
2733.6018,100.007
2734.5662,100.011
2735.5303,100.013
2736.4946,100.013
2737.4587,100.009
2738.4231,100.004
2739.3872,99.9992
2740.3516,99.998
2741.3157,100.001
2742.2800,100.009
2743.2441,100.019
2744.2085,100.029
2745.1726,100.037
2746.1370,100.042
2747.1011,100.044
2748.0654,100.045
2749.0295,100.045
2749.9939,100.045
2750.9580,100.048
2751.9224,100.053
2752.8865,100.059
2753.8508,100.065
2754.8149,100.069
2755.7793,100.071
2756.7434,100.07
2757.7078,100.069
2758.6719,100.069
2759.6362,100.074
2760.6003,100.082
2761.5647,100.091
2762.5288,100.099
2763.4932,100.103
2764.4573,100.102
2765.4216,100.098
2766.3857,100.093
2767.3501,100.089
2768.3142,100.086
2769.2786,100.085
2770.2427,100.083
2771.2070,100.079
2772.1711,100.073
2773.1355,100.063
2774.0996,100.052
2775.0640,100.041
2776.0281,100.033
2776.9924,100.029
2777.9565,100.028
2778.9209,100.027
2779.8850,100.026
2780.8494,100.022
2781.8135,100.018
2782.7778,100.014
2783.7419,100.013
2784.7063,100.013
2785.6704,100.012
2786.6348,100.007
2787.5989,99.9971
2788.5632,99.9805
2789.5273,99.9598
2790.4917,99.9388
2791.4558,99.9215
2792.4202,99.91
2793.3843,99.9038
2794.3486,99.9004
2795.3127,99.8959
2796.2771,99.8871
2797.2412,99.8723
2798.2056,99.8515
2799.1697,99.8264
2800.1340,99.7993
2801.0981,99.773
2802.0625,99.75
2803.0266,99.7323
2803.9910,99.7205
2804.9551,99.7135
2805.9194,99.7083
2806.8835,99.7003
2807.8479,99.6855
2808.8120,99.6615
2809.7764,99.6287
2810.7405,99.5899
2811.7048,99.549
2812.6689,99.5088
2813.6333,99.4701
2814.5974,99.4322
2815.5618,99.3937
2816.5259,99.3537
2817.4902,99.3121
2818.4543,99.2686
2819.4187,99.2216
2820.3828,99.168
2821.3472,99.1041
2822.3113,99.0275
2823.2756,98.9391
2824.2397,98.842
2825.2041,98.7409
2826.1682,98.6387
2827.1326,98.5355
2828.0967,98.4288
2829.0610,98.3159
2830.0251,98.196
2830.9895,98.0712
2831.9536,97.946
2832.9180,97.8252
2833.8821,97.7119
2834.8464,97.6071
2835.8105,97.51
2836.7749,97.4196
2837.7390,97.3365
2838.7034,97.2631
2839.6675,97.2027
2840.6318,97.1581
2841.5959,97.1299
2842.5603,97.1159
2843.5244,97.1125
2844.4888,97.1166
2845.4529,97.1277
2846.4172,97.1483
2847.3813,97.1817
2848.3457,97.2295
2849.3098,97.289
2850.2742,97.3534
2851.2383,97.4142
2852.2026,97.4641
2853.1667,97.4993
2854.1311,97.5195
2855.0952,97.5262
2856.0596,97.5215
2857.0237,97.5075
2857.9880,97.4867
2858.9521,97.4623
2859.9165,97.4372
2860.8806,97.413
2861.8450,97.3893
2862.8091,97.3647
2863.7734,97.3381
2864.7375,97.3107
2865.7019,97.2857
2866.6660,97.2666
2867.6304,97.2554
2868.5945,97.2507
2869.5588,97.2484
2870.5229,97.2437
2871.4873,97.2331
2872.4514,97.2166
2873.4158,97.197
2874.3799,97.1788
2875.3442,97.1657
2876.3083,97.1588
2877.2727,97.157
2878.2368,97.1571
2879.2012,97.1559
2880.1653,97.1513
2881.1296,97.143
2882.0938,97.1317
2883.0581,97.1188
2884.0222,97.1054
2884.9866,97.0924
2885.9507,97.0798
2886.9150,97.0676
2887.8792,97.0549
2888.8435,97.0408
2889.8076,97.0238
2890.7720,97.0019
2891.7361,96.9741
2892.7004,96.9402
2893.6646,96.9022
2894.6289,96.8641
2895.5930,96.8306
2896.5574,96.8053
2897.5215,96.7887
2898.4858,96.7776
2899.4500,96.7659
2900.4143,96.7472
2901.3784,96.7175
2902.3428,96.6774
2903.3069,96.6315
2904.2712,96.5862
2905.2354,96.5472
2906.1997,96.5176
2907.1638,96.4973
2908.1282,96.4832
2909.0923,96.471
2910.0566,96.4558
2911.0208,96.4342
2911.9851,96.4052
2912.9492,96.3699
2913.9136,96.3316
2914.8777,96.2938
2915.8420,96.2584
2916.8062,96.2252
2917.7705,96.1913
2918.7346,96.153
2919.6990,96.1076
2920.6631,96.0544
2921.6274,95.9951
2922.5916,95.9317
2923.5559,95.8648
2924.5200,95.7928
2925.4844,95.7122
2926.4485,95.6204
2927.4128,95.5172
2928.3770,95.4066
2929.3413,95.2953
2930.3054,95.1906
2931.2698,95.0982
2932.2339,95.0213
2933.1982,94.9619
2934.1624,94.9216
2935.1267,94.9026
2936.0908,94.9072
2937.0552,94.9368
2938.0193,94.9906
2938.9836,95.066
2939.9478,95.1591
2940.9121,95.2651
2941.8762,95.3799
2942.8406,95.4998
2943.8047,95.6223
2944.7690,95.7461
2945.7332,95.8708
2946.6975,95.9961
2947.6616,96.1207
2948.6260,96.2418
2949.5901,96.3556
2950.5544,96.4587
2951.5186,96.5493
2952.4829,96.6281
2953.4470,96.697
2954.4114,96.7581
2955.3755,96.8124
2956.3398,96.8598
2957.3040,96.8994
2958.2683,96.9302
2959.2324,96.9517
2960.1968,96.9638
2961.1609,96.9674
2962.1252,96.9641
2963.0894,96.9564
2964.0537,96.9469
2965.0178,96.937
2965.9822,96.927
2966.9463,96.9173
2967.9106,96.9096
2968.8748,96.9076
2969.8391,96.9163
2970.8032,96.9394
2971.7676,96.9779
2972.7317,97.0295
2973.6960,97.0915
2974.6602,97.1634
2975.6245,97.2471
2976.5886,97.3455
2977.5530,97.4591
2978.5171,97.5845
2979.4814,97.7151
2980.4456,97.8448
2981.4099,97.9713
2982.3740,98.0965
2983.3384,98.2247
2984.3025,98.3588
2985.2668,98.4972
2986.2310,98.6339
2987.1953,98.7602
2988.1594,98.8686
2989.1238,98.9557
2990.0879,99.0237
2991.0522,99.0782
2992.0164,99.1259
2992.9807,99.1705
2993.9448,99.2123
2994.9092,99.249
2995.8733,99.2781
2996.8376,99.3
2997.8018,99.3185
2998.7661,99.3391
2999.7302,99.3663
3000.6946,99.4014
3001.6587,99.4417
3002.6230,99.4835
3003.5872,99.5238
3004.5515,99.5632
3005.5156,99.6042
3006.4800,99.65
3007.4441,99.7013
3008.4084,99.7562
3009.3726,99.8106
3010.3369,99.8608
3011.3010,99.9052
3012.2654,99.9447
3013.2295,99.9809
3014.1938,100.015
3015.1580,100.045
3016.1223,100.071
3017.0864,100.093
3018.0508,100.097
3019.0149,100.1
3019.9792,100.105
3020.9434,100.112
3021.9077,100.118
3022.8718,100.123
3023.8362,100.124
3024.8003,100.124
3025.7646,100.128
3026.7288,100.137
3027.6931,100.154
3028.6572,100.175
3029.6216,100.196
3030.5857,100.21
3031.5500,100.213
3032.5142,100.203
3033.4785,100.183
3034.4426,100.16
3035.4070,100.14
3036.3711,100.128
3037.3354,100.123
3038.2996,100.122
3039.2639,100.119
3040.2280,100.109
3041.1924,100.092
3042.1565,100.071
3043.1208,100.05
3044.0850,100.033
3045.0493,100.02
3046.0134,100.011
3046.9778,100.003
3047.9419,99.9932
3048.9063,99.981
3049.8704,99.9646
3050.8347,99.9432
3051.7988,99.917
3052.7632,99.8879
3053.7273,99.8595
3054.6917,99.8358
3055.6558,99.8194
3056.6201,99.81
3057.5842,99.8043
3058.5486,99.798
3059.5127,99.788
3060.4771,99.7743
3061.4412,99.7591
3062.4055,99.7453
3063.3696,99.7339
3064.3340,99.7232
3065.2981,99.7099
3066.2625,99.6912
3067.2266,99.6671
3068.1909,99.6401
3069.1550,99.6141
3070.1194,99.5919
3071.0835,99.5748
3072.0479,99.5622
3073.0120,99.5535
3073.9763,99.5482
3074.9404,99.5461
3075.9048,99.5461
3076.8689,99.5461
3077.8333,99.5433
3078.7974,99.5361
3079.7617,99.5248
3080.7258,99.5114
3081.6902,99.4984
3082.6543,99.4868
3083.6187,99.4762
3084.5828,99.4647
3085.5471,99.4508
3086.5112,99.4341
3087.4756,99.4151
3088.4397,99.3955
3089.4041,99.377
3090.3682,99.3616
3091.3325,99.3506
3092.2966,99.3443
3093.2610,99.3414
3094.2251,99.3387
3095.1895,99.333
3096.1536,99.3219
3097.1179,99.3054
3098.0820,99.2854
3099.0464,99.2641
3100.0105,99.2429
3100.9749,99.2218
3101.9390,99.2
3102.9033,99.177
3103.8674,99.1534
3104.8318,99.13
3105.7959,99.1068
3106.7603,99.0833
3107.7244,99.0583
3108.6887,99.0315
3109.6528,99.0043
3110.6172,98.9792
3111.5813,98.9591
3112.5457,98.9454
3113.5098,98.9376
3114.4741,98.9334
3115.4382,98.9302
3116.4026,98.9259
3117.3667,98.9193
3118.3311,98.9091
3119.2952,98.894
3120.2595,98.8721
3121.2236,98.8425
3122.1880,98.8063
3123.1521,98.7664
3124.1165,98.7269
3125.0806,98.6907
3126.0449,98.6591
3127.0090,98.632
3127.9734,98.6093
3128.9375,98.5921
3129.9019,98.5818
3130.8660,98.5783
3131.8303,98.5782
3132.7944,98.5757
3133.7588,98.5646
3134.7229,98.5422
3135.6873,98.5102
3136.6514,98.4744
3137.6157,98.4404
3138.5798,98.4115
3139.5442,98.3873
3140.5083,98.3649
3141.4727,98.3418
3142.4368,98.3177
3143.4011,98.2947
3144.3652,98.2761
3145.3296,98.2641
3146.2937,98.2585
3147.2581,98.2563
3148.2222,98.2529
3149.1865,98.2438
3150.1506,98.226
3151.1150,98.1989
3152.0791,98.1643
3153.0435,98.1252
3154.0076,98.0849
3154.9719,98.0464
3155.9360,98.012
3156.9004,97.9822
3157.8645,97.9562
3158.8289,97.9318
3159.7930,97.9073
3160.7573,97.8826
3161.7214,97.8598
3162.6858,97.8418
3163.6499,97.8299
3164.6143,97.8223
3165.5784,97.8142
3166.5427,97.8006
3167.5068,97.7787
3168.4712,97.7495
3169.4353,97.6402
3170.3997,97.6089
3171.3638,97.582
3172.3281,97.56
3173.2922,97.5419
3174.2566,97.5261
3175.2207,97.5104
3176.1851,97.4921
3177.1492,97.4681
3178.1135,97.4373
3179.0776,97.4015
3180.0420,97.3652
3181.0061,97.3334
3181.9705,97.3091
3182.9346,97.2915
3183.8989,97.2775
3184.8630,97.264
3185.8274,97.2494
3186.7915,97.2338
3187.7559,97.2176
3188.7200,97.1999
3189.6843,97.1787
3190.6484,97.1525
3191.6128,97.1218
3192.5769,97.0894
3193.5413,97.0586
3194.5054,97.0316
3195.4697,97.0086
3196.4338,96.9883
3197.3982,96.97
3198.3623,96.9541
3199.3267,96.9422
3200.2908,96.9347
3201.2551,96.9296
3202.2192,96.9223
3203.1836,96.9074
3204.1477,96.8817
3205.1121,96.8461
3206.0762,96.8052
3207.0405,96.7652
3208.0046,96.7314
3208.9690,96.7058
3209.9331,96.6875
3210.8975,96.6738
3211.8616,96.662
3212.8259,96.6512
3213.7900,96.641
3214.7544,96.6311
3215.7185,96.6208
3216.6829,96.6084
3217.6470,96.5927
3218.6113,96.5732
3219.5754,96.5504
3220.5398,96.5245
3221.5039,96.4955
3222.4683,96.4631
3223.4324,96.4277
3224.3967,96.3921
3225.3608,96.3612
3226.3252,96.3409
3227.2893,96.3353
3228.2537,96.344
3229.2178,96.3614
3230.1821,96.3783
3231.1462,96.3856
3232.1106,96.378
3233.0747,96.355
3234.0391,96.32
3235.0032,96.2779
3235.9675,96.2331
3236.9316,96.1892
3237.8960,96.1498
3238.8601,96.1186
3239.8245,96.0985
3240.7886,96.0901
3241.7529,96.0901
3242.7170,96.0922
3243.6814,96.0895
3244.6455,96.077
3245.6099,96.0537
3246.5740,96.0224
3247.5383,95.9871
3248.5024,95.9517
3249.4668,95.9197
3250.4309,95.8947
3251.3953,95.8797
3252.3594,95.8751
3253.3237,95.8773
3254.2878,95.8783
3255.2522,95.869
3256.2163,95.844
3257.1807,95.8042
3258.1448,95.7567
3259.1091,95.7106
3260.0732,95.6725
3261.0376,95.6438
3262.0017,95.6217
3262.9661,95.6019
3263.9302,95.5818
3264.8945,95.5616
3265.8586,95.5433
3266.8230,95.5288
3267.7871,95.5194
3268.7515,95.5148
3269.7156,95.5139
3270.6799,95.5145
3271.6440,95.5134
3272.6084,95.5068
3273.5725,95.4911
3274.5369,95.4652
3275.5010,95.4311
3276.4653,95.3938
3277.4294,95.3595
3278.3938,95.3329
3279.3579,95.3158
3280.3223,95.3066
3281.2864,95.3021
3282.2507,95.2985
3283.2148,95.2926
3284.1792,95.2828
3285.1433,95.268
3286.1077,95.2484
3287.0718,95.2246
3288.0361,95.199
3289.0002,95.1748
3289.9646,95.1555
3290.9287,95.1425
3291.8931,95.134
3292.8572,95.1252
3293.8215,95.1106
3294.7856,95.0879
3295.7500,95.0588
3296.7141,95.0297
3297.6785,95.0079
3298.6426,94.9979
3299.6069,94.9995
3300.5710,95.0074
3301.5354,95.0145
3302.4995,95.0149
3303.4639,95.0062
3304.4280,94.9893
3305.3923,94.9666
3306.3564,94.9399
3307.3208,94.91
3308.2849,94.8773
3309.2493,94.8428
3310.2134,94.809
3311.1777,94.7787
3312.1418,94.7541
3313.1062,94.735
3314.0703,94.7195
3315.0347,94.705
3315.9988,94.6902
3316.9631,94.6754
3317.9272,94.6624
3318.8916,94.6529
3319.8557,94.6472
3320.8201,94.6438
3321.7842,94.64
3322.7485,94.6335
3323.7126,94.6232
3324.6770,94.6097
3325.6411,94.5945
3326.6055,94.5789
3327.5696,94.5633
3328.5339,94.547
3329.4980,94.5287
3330.4624,94.5081
3331.4265,94.4859
3332.3909,94.4645
3333.3550,94.4469
3334.3193,94.4358
3335.2834,94.4321
3336.2478,94.4348
3337.2119,94.4413
3338.1763,94.4478
3339.1404,94.4506
3340.1047,94.4467
3341.0688,94.4353
3342.0332,94.4178
3342.9973,94.398
3343.9617,94.3806
3344.9258,94.3685
3345.8901,94.3615
3346.8542,94.356
3347.8186,94.3469
3348.7827,94.33
3349.7471,94.3044
3350.7112,94.2725
3351.6755,94.2385
3352.6396,94.2072
3353.6040,94.1818
3354.5681,94.1645
3355.5325,94.1555
3356.4966,94.1532
3357.4609,94.1543
3358.4250,94.1544
3359.3894,94.1496
3360.3535,94.1389
3361.3179,94.1239
3362.2820,94.1089
3363.2463,94.0978
3364.2104,94.092
3365.1748,94.0899
3366.1389,94.0878
3367.1033,94.0828
3368.0674,94.0743
3369.0317,94.0645
3369.9958,94.0569
3370.9602,94.0546
3371.9243,94.0589
3372.8887,94.0686
3373.8528,94.0806
3374.8171,94.09
3375.7813,94.0916
3376.7456,94.0818
3377.7097,94.0592
3378.6741,94.0266
3379.6382,93.9895
3380.6025,93.9549
3381.5667,93.9286
3382.5310,93.9129
3383.4951,93.9061
3384.4595,93.9037
3385.4236,93.9004
3386.3879,93.893
3387.3521,93.8818
3388.3164,93.8698
3389.2805,93.8609
3390.2449,93.8572
3391.2090,93.8577
3392.1733,93.8582
3393.1375,93.854
3394.1018,93.8427
3395.0659,93.8261
3396.0303,93.8091
3396.9944,93.7974
3397.9587,93.7938
3398.9229,93.7967
3399.8872,93.8006
3400.8513,93.8
3401.8157,93.7926
3402.7798,93.7811
3403.7441,93.7711
3404.7083,93.7672
3405.6726,93.7694
3406.6367,93.7727
3407.6011,93.7702
3408.5652,93.7574
3409.5295,93.7351
3410.4937,93.7092
3411.4580,93.6865
3412.4221,93.6712
3413.3865,93.6637
3414.3506,93.6609
3415.3149,93.6604
3416.2791,93.6621
3417.2434,93.6677
3418.2075,93.678
3419.1719,93.6908
3420.1360,93.7015
3421.1003,93.7059
3422.0645,93.7033
3423.0288,93.6974
3423.9929,93.6932
3424.9573,93.694
3425.9214,93.7001
3426.8857,93.7081
3427.8499,93.714
3428.8142,93.7149
3429.7783,93.7113
3430.7427,93.7072
3431.7068,93.7071
3432.6711,93.7133
3433.6353,93.7243
3434.5996,93.735
3435.5637,93.7406
3436.5281,93.7389
3437.4922,93.7318
3438.4565,93.7232
3439.4207,93.7156
3440.3850,93.7084
3441.3491,93.6996
3442.3135,93.6889
3443.2776,93.681
3444.2419,93.6843
3445.2061,93.7056
3446.1704,93.7439
3447.1345,93.7894
3448.0989,93.8286
3449.0630,93.8525
3450.0273,93.8603
3450.9915,93.8578
3451.9558,93.8528
3452.9199,93.8499
3453.8843,93.8486
3454.8484,93.8452
3455.8127,93.8378
3456.7769,93.8294
3457.7412,93.8281
3458.7053,93.8419
3459.6697,93.874
3460.6338,93.9194
3461.5981,93.9672
3462.5623,94.0058
3463.5266,94.0291
3464.4907,94.0388
3465.4551,94.0424
3466.4192,94.0479
3467.3835,94.0589
3468.3477,94.0728
3469.3120,94.0833
3470.2761,94.0853
3471.2405,94.0783
3472.2046,94.0672
3473.1689,94.0596
3474.1331,94.0616
3475.0974,94.0755
3476.0615,94.1002
3477.0259,94.1331
3477.9900,94.1716
3478.9543,94.2132
3479.9185,94.2531
3480.8828,94.2835
3481.8469,94.2977
3482.8113,94.2946
3483.7754,94.281
3484.7397,94.2681
3485.7039,94.2667
3486.6682,94.282
3487.6323,94.3117
3488.5967,94.3473
3489.5608,94.3803
3490.5251,94.4069
3491.4893,94.4298
3492.4536,94.4554
3493.4177,94.4885
3494.3821,94.5278
3495.3462,94.565
3496.3105,94.5901
3497.2747,94.5989
3498.2390,94.5971
3499.2031,94.5981
3500.1675,94.6159
3501.1316,94.6546
3502.0959,94.7024
3503.0601,94.7382
3504.0244,94.7476
3504.9885,94.7334
3505.9529,94.7115
3506.9170,94.7017
3507.8813,94.7183
3508.8455,94.7631
3509.8098,94.824
3510.7739,94.8829
3511.7383,94.9275
3512.7024,94.9557
3513.6667,94.9727
3514.6309,94.9861
3515.5952,95.0007
3516.5593,95.0181
3517.5237,95.0378
3518.4878,95.0596
3519.4521,95.0859
3520.4163,95.1206
3521.3806,95.1666
3522.3447,95.224
3523.3091,95.2906
3524.2732,95.3643
3525.2375,95.4429
3526.2017,95.5222
3527.1660,95.5938
3528.1301,95.6466
3529.0945,95.674
3530.0586,95.6787
3531.0229,95.6715
3531.9871,95.6658
3532.9514,95.6736
3533.9155,95.702
3534.8799,95.7517
3535.8440,95.816
3536.8083,95.8844
3537.7725,95.9471
3538.7368,95.9986
3539.7009,96.0383
3540.6653,96.0727
3541.6294,96.116
3542.5938,96.1861
3543.5579,96.2904
3544.5222,96.4133
3545.4863,96.5205
3546.4507,96.5843
3547.4148,96.6028
3548.3792,96.596
3549.3433,96.5915
3550.3076,96.6144
3551.2717,96.678
3552.2361,96.7755
3553.2002,96.8834
3554.1646,96.9771
3555.1287,97.0454
3556.0930,97.0932
3557.0571,97.1355
3558.0215,97.1864
3558.9856,97.247
3559.9500,97.3012
3560.9141,97.3273
3561.8784,97.317
3562.8425,97.2917
3563.8069,97.304
3564.7710,97.4095
3565.7354,97.6049
3566.6995,97.7995
3567.6638,97.9007
3568.6279,97.9075
3569.5923,97.8686
3570.5564,97.8149
3571.5208,97.7602
3572.4849,97.7215
3573.4492,97.7202
3574.4133,97.7684
3575.3777,97.8594
3576.3418,97.9723
3577.3062,98.0839
3578.2703,98.1748
3579.2346,98.2291
3580.1987,98.2332
3581.1631,98.179
3582.1272,98.0725
3583.0916,97.944
3584.0557,97.8532
3585.0200,97.8701
3585.9841,98.0177
3586.9485,98.2227
3587.9126,98.3707
3588.8770,98.4154
3589.8411,98.3829
3590.8054,98.3133
3591.7695,98.2429
3592.7339,98.2085
3593.6980,98.2331
3594.6624,98.3099
3595.6265,98.4103
3596.5908,98.5121
3597.5549,98.6117
3598.5193,98.7122
3599.4834,98.8058
3600.4478,98.8683
3601.4119,98.8746
3602.3762,98.8169
3603.3403,98.7106
3604.3047,98.5909
3605.2688,98.5032
3606.2332,98.4826
3607.1973,98.5284
3608.1616,98.6052
3609.1257,98.6765
3610.0901,98.7321
3611.0542,98.7782
3612.0186,98.8139
3612.9829,98.8245
3613.9470,98.7963
3614.9114,98.737
3615.8755,98.6846
3616.8398,98.6937
3617.8040,98.7982
3618.7683,98.9703
3619.7324,99.1324
3620.6968,99.2202
3621.6609,99.2095
3622.6252,99.0909
3623.5894,98.8642
3624.5537,98.5699
3625.5178,98.319
3626.4822,98.2722
3627.4463,98.5166
3628.4106,98.9133
3629.3748,99.2065
3630.3391,99.3115
3631.3032,99.2992
3632.2676,99.2355
3633.2317,99.1539
3634.1960,99.0816
3635.1602,99.0434
3636.1245,99.0511
3637.0886,99.1005
3638.0530,99.1781
3639.0171,99.2677
3639.9814,99.3491
3640.9456,99.3948
3641.9099,99.3725
3642.8740,99.2594
3643.8384,99.0666
3644.8025,98.869
3645.7668,98.8287
3646.7310,99.1524
3647.6953,99.8624
3648.6594,100.517
3649.6238,100.626
3650.5879,100.306
3651.5522,99.8988
3652.5164,99.543
3653.4807,99.262
3654.4448,99.0876
3655.4092,99.062
3656.3733,99.1822
3657.3376,99.3826
3658.3018,99.5806
3659.2661,99.727
3660.2302,99.8146
3661.1946,99.8592
3662.1587,99.8726
3663.1230,99.8464
3664.0872,99.7601
3665.0515,99.6134
3666.0156,99.4557
3666.9800,99.3842
3667.9441,99.4791
3668.9084,99.6928
3669.8726,99.8461
3670.8369,99.8059
3671.8010,99.6078
3672.7654,99.4005
3673.7295,99.3511
3674.6938,99.5411
3675.6580,99.8663
3676.6223,100.13
3677.5864,100.259
3678.5508,100.281
3679.5149,100.234
3680.4792,100.14
3681.4434,100.013
3682.4077,99.8569
3683.3718,99.6635
3684.3362,99.4381
3685.3003,99.2313
3686.2646,99.155
3687.2288,99.3377
3688.1931,99.7866
3689.1572,100.285
3690.1216,100.57
3691.0857,100.597
3692.0500,100.472
3693.0142,100.286
3693.9785,100.082
3694.9426,99.8779
3695.9070,99.6858
3696.8711,99.5228
3697.8354,99.4158
3698.7996,99.4013
3699.7639,99.5078
3700.7280,99.7214
3701.6924,99.9694
3702.6565,100.155
3703.6208,100.216
3704.5850,100.139
3705.5493,99.9502
3706.5134,99.7085
3707.4778,99.5102
3708.4419,99.4739
3709.4063,99.6686
3710.3704,100.011
3711.3347,100.298
3712.2988,100.424
3713.2632,100.428
3714.2273,100.371
3715.1917,100.272
3716.1558,100.14
3717.1201,100.007
3718.0842,99.9201
3719.0486,99.9216
3720.0127,100.024
3720.9771,100.209
3721.9412,100.441
3722.9055,100.681
3723.8696,100.89
3724.8340,101.024
3725.7981,101.051
3726.7625,100.962
3727.7266,100.772
3728.6909,100.51
3729.6550,100.226
3730.6194,100.006
3731.5835,99.9755
3732.5479,100.254
3733.5120,100.849
3734.4763,101.537
3735.4404,101.988
3736.4048,102.08
3737.3689,101.917
3738.3333,101.602
3739.2974,101.17
3740.2617,100.65
3741.2258,100.139
3742.1902,99.8045
3743.1543,99.7776
3744.1187,100.011
3745.0828,100.296
3746.0471,100.468
3747.0112,100.519
3747.9756,100.542
3748.9397,100.645
3749.9041,100.821
3750.8682,100.903
3751.8325,100.789
3752.7966,100.563
3753.7610,100.322
3754.7251,100.096
3755.6895,99.903
3756.6536,99.7875
3757.6179,99.7814
3758.5820,99.8597
3759.5464,99.9518
3760.5105,99.9996
3761.4749,99.9863
3762.4390,99.9261
3763.4033,99.847
3764.3674,99.7782
3765.3318,99.7398
3766.2959,99.7383
3767.2603,99.7707
3768.2244,99.8287
3769.1887,99.8974
3770.1528,99.9542
3771.1172,99.9755
3772.0813,99.9445
3773.0457,99.8551
3774.0098,99.7176
3774.9741,99.567
3775.9382,99.4634
3776.9026,99.4661
3777.8667,99.5887
3778.8311,99.776
3779.7952,99.9443
3780.7595,100.043
3781.7236,100.07
3782.6880,100.052
3783.6521,100.012
3784.6165,99.9672
3785.5806,99.9222
3786.5449,99.8787
3787.5090,99.8388
3788.4734,99.802
3789.4375,99.7639
3790.4019,99.7203
3791.3660,99.6767
3792.3303,99.6535
3793.2944,99.6767
3794.2588,99.7561
3795.2229,99.8683
3796.1873,99.9659
3797.1514,100.014
3798.1157,100.017
3799.0798,100.01
3800.0442,100.007
3801.0083,99.973
3801.9727,99.8625
3802.9368,99.6845
3803.9011,99.4938
3804.8652,99.3594
3805.8296,99.3418
3806.7937,99.4587
3807.7581,99.6593
3808.7222,99.8508
3809.6865,99.9518
3810.6506,99.9244
3811.6150,99.7901
3812.5791,99.6291
3813.5435,99.5453
3814.5076,99.5911
3815.4719,99.716
3816.4360,99.8177
3817.4004,99.8451
3818.3645,99.8263
3819.3289,99.8145
3820.2930,99.826
3821.2573,99.837
3822.2214,99.8332
3823.1858,99.8241
3824.1499,99.8164
3825.1143,99.8095
3826.0784,99.8066
3827.0427,99.8167
3828.0068,99.8459
3828.9712,99.8911
3829.9353,99.9381
3830.8997,99.9642
3831.8638,99.9422
3832.8281,99.853
3833.7922,99.7026
3834.7566,99.5333
3835.7207,99.4155
3836.6851,99.4103
3837.6492,99.5239
3838.6135,99.7007
3839.5776,99.8735
3840.5420,100.011
3841.5061,100.115
3842.4705,100.196
3843.4346,100.258
3844.3989,100.288
3845.3630,100.262
3846.3274,100.14
3847.2915,99.89
3848.2559,99.5062
3849.2200,99.0525
3850.1843,98.6982
3851.1484,98.6989
3852.1128,99.191
3853.0769,99.8765
3854.0413,100.283
3855.0054,100.365
3855.9697,100.298
3856.9338,100.152
3857.8982,99.9288
3858.8623,99.6569
3859.8267,99.4145
3860.7908,99.3024
3861.7551,99.3812
3862.7192,99.6077
3863.6836,99.8451
3864.6477,99.9655
3865.6121,99.9341
3866.5762,99.801
3867.5405,99.6536
3868.5046,99.5743
3869.4690,99.6036
3870.4331,99.7185
3871.3975,99.8513
3872.3616,99.9379
3873.3259,99.9479
3874.2900,99.8806
3875.2544,99.7537
3876.2185,99.6015
3877.1829,99.4741
3878.1470,99.4251
3879.1113,99.4815
3880.0754,99.6177
3881.0398,99.7657
3882.0039,99.8627
3882.9683,99.8851
3883.9324,99.8421
3884.8967,99.7519
3885.8608,99.631
3886.8252,99.4979
3887.7893,99.3802
3888.7537,99.3219
3889.7178,99.3755
3890.6821,99.5601
3891.6462,99.8145
3892.6106,100.023
3893.5747,100.097
3894.5391,100.021
3895.5032,99.8292
3896.4675,99.5889
3897.4316,99.3836
3898.3960,99.2807
3899.3601,99.3013
3900.3245,99.4189
3901.2886,99.588
3902.2529,99.7642
3903.2170,99.9059
3904.1814,99.9852
3905.1455,100.002
3906.1099,99.9754
3907.0740,99.9244
3908.0383,99.8612
3909.0024,99.7949
3909.9668,99.7322
3910.9309,99.6744
3911.8953,99.6199
3912.8594,99.5719
3913.8237,99.5462
3914.7878,99.5667
3915.7522,99.6464
3916.7163,99.7666
3917.6807,99.8794
3918.6448,99.9398
3919.6091,99.9334
3920.5732,99.8755
3921.5376,99.7974
3922.5017,99.7311
3923.4661,99.695
3924.4302,99.6846
3925.3945,99.6799
3926.3586,99.6631
3927.3230,99.6321
3928.2871,99.6042
3929.2515,99.6077
3930.2156,99.6628
3931.1799,99.7617
3932.1440,99.8691
3933.1084,99.9473
3934.0725,99.9763
3935.0369,99.9534
3936.0010,99.8856
3936.9653,99.7858
3937.9294,99.6737
3938.8938,99.5753
3939.8579,99.5185
3940.8223,99.5208
3941.7864,99.5777
3942.7507,99.6619
3943.7148,99.739
3944.6792,99.7864
3945.6433,99.8033
3946.6077,99.8055
3947.5718,99.812
3948.5361,99.8302
3949.5002,99.8506
3950.4646,99.856
3951.4287,99.8352
3952.3931,99.7898
3953.3572,99.7322
3954.3215,99.679
3955.2856,99.6438
3956.2500,99.6337
3957.2141,99.6501
3958.1785,99.6909
3959.1426,99.7522
3960.1069,99.8251
3961.0710,99.8942
3962.0354,99.9393
3962.9995,99.9446
3963.9639,99.906
3964.9280,99.8345
3965.8923,99.7505
3966.8564,99.6772
3967.8208,99.6317
3968.7849,99.6209
3969.7493,99.6411
3970.7134,99.6822
3971.6777,99.7328
3972.6418,99.783
3973.6062,99.8251
3974.5703,99.8536
3975.5347,99.8653
3976.4988,99.8606
3977.4631,99.8433
3978.4272,99.8201
3979.3916,99.7984
3980.3557,99.7837
3981.3201,99.7774
3982.2842,99.7764
3983.2485,99.7746
3984.2126,99.7665
3985.1770,99.7508
3986.1411,99.7312
3987.1055,99.7152
3988.0696,99.7096
3989.0339,99.7175
3989.9980,99.736
3990.9624,99.7588
3991.9265,99.7792
3992.8909,99.7943
3993.8550,99.8045
3994.8193,99.8114
3995.7834,99.8151
3996.7478,99.8133
3997.7119,99.8033
3998.6763,99.7846
3999.6404,99.7608
4000.6047,99.9108

##### Extended Information
[Comments]
Sample name
Comment
User
Division
Company,HANKYONG

[Detailed Information]
Creation date,4/24/2024 3:53 PM

Data array type,Linear data array
Horizontal axis,Wavenumber [cm-1]
Vertical axis,%T
Start,649.893 cm-1
End,4000.6 cm-1
Data interval,0.964233 cm-1
Data points,3476    

[Measurement Information]
Model Name,FT/IR-4700typeA
Serial Number,D056761788

Accessory,ATR PRO ONE
Accessory S/N,C174761809
Incident angle,45 deg

Measurement Date,4/24/2024 3:52 PM

Light Source,Standard
Detector,TGS
Accumulation,32
Resolution,4 cm-1
Zero Filling,On
Apodization,Cosine
Gain,Auto (4)
Aperture,Auto (7.1 mm)
Scanning Speed,Auto (2 mm/sec)
Filter,Auto (30000 Hz)

