TITLE,
DATA TYPE,INFRARED SPECTRUM
ORIGIN,JASCO
OWNER,
DATE,24/04/24
TIME,12:14:15
SPECTROMETER/DATA SYSTEM,
LOCALE,1033
RESOLUTION,
DELTAX,0.964233
XUNITS,1/CM
YUNITS,TRANSMITTANCE
FIRSTX,  649.8934
LASTX, 4000.6047
NPOINTS,    3476
FIRSTY,    98.14483
MAXY,   102.31155
MINY,    62.08822
XYDATA
649.8934,98.1448
650.8576,98.1307
651.8218,98.1195
652.7861,98.1224
653.7503,98.1441
654.7145,98.1931
655.6788,98.2686
656.6430,98.3547
657.6072,98.4328
658.5715,98.5016
659.5357,98.5837
660.4999,98.7057
661.4642,98.8639
662.4284,99.0085
663.3926,99.0612
664.3569,98.9417
665.3211,98.5819
666.2853,97.9556
667.2496,97.1765
668.2138,96.5994
669.1780,96.5711
670.1423,96.9893
671.1065,97.4982
672.0707,97.8832
673.0350,98.0977
673.9992,98.1662
674.9634,98.1329
675.9277,98.0455
676.8919,97.9461
677.8561,97.8637
678.8204,97.8138
679.7846,97.8035
680.7488,97.8339
681.7131,97.8969
682.6773,97.9758
683.6415,98.0514
684.6058,98.1133
685.5700,98.1637
686.5342,98.2116
687.4985,98.2603
688.4627,98.2987
689.4269,98.3007
690.3912,98.2388
691.3554,98.1129
692.3196,97.9804
693.2839,97.9445
694.2481,98.0724
695.2123,98.3281
696.1766,98.6174
697.1408,98.8615
698.1050,99.0217
699.0693,99.0963
700.0335,99.11
700.9977,99.0978
701.9620,99.0875
702.9262,99.0918
703.8904,99.1119
704.8547,99.1469
705.8189,99.1978
706.7831,99.2634
707.7474,99.3361
708.7116,99.4021
709.6758,99.4473
710.6401,99.4646
711.6043,99.4541
712.5685,99.4181
713.5328,99.3533
714.4970,99.2489
715.4612,99.295
716.4255,99.0729
717.3897,98.8248
718.3539,98.5951
719.3182,98.4323
720.2824,98.3659
721.2466,98.3883
722.2109,98.4956
723.1751,98.6334
724.1393,98.7206
725.1036,98.7408
726.0678,98.7047
727.0320,98.6422
727.9963,98.5885
728.9605,98.5697
729.9247,98.5944
730.8890,98.654
731.8532,98.7314
732.8174,98.8117
733.7817,98.8878
734.7459,98.9595
735.7101,99.0278
736.6744,99.0901
737.6386,99.1406
738.6028,99.1744
739.5671,99.1923
740.5313,99.201
741.4955,99.2086
742.4598,99.22
743.4240,99.2348
744.3882,99.2489
745.3525,99.2577
746.3167,99.2571
747.2809,99.2436
748.2452,99.2144
749.2094,99.1695
750.1736,99.114
751.1379,99.0579
752.1021,99.0118
753.0663,98.9813
754.0306,98.9638
754.9948,98.9509
755.9590,98.9342
756.9233,98.9094
757.8875,98.8775
758.8517,98.8408
759.8160,98.7996
760.7802,98.7521
761.7444,98.6972
762.7087,98.6375
763.6729,98.5801
764.6371,98.5344
765.6014,98.5079
766.5656,98.5039
767.5298,98.5206
768.4941,98.5525
769.4583,98.5922
770.4225,98.6316
771.3868,98.6631
772.3510,98.6802
773.3152,98.6778
774.2795,98.6535
775.2437,98.6092
776.2079,98.5521
777.1722,98.4942
778.1364,98.4496
779.1006,98.4282
780.0649,98.4315
781.0291,98.4516
781.9933,98.475
782.9576,98.4903
783.9218,98.4925
784.8860,98.4831
785.8503,98.4651
786.8145,98.4378
787.7787,98.3946
788.7430,98.327
789.7072,98.2302
790.6714,98.1061
791.6357,97.9619
792.5999,97.8055
793.5641,97.6405
794.5284,97.4647
795.4926,97.2728
796.4568,97.0613
797.4211,96.8322
798.3853,96.5945
799.3495,96.3616
800.3138,96.1475
801.2780,95.9623
802.2422,95.8092
803.2065,95.6862
804.1707,95.5888
805.1349,95.5145
806.0992,95.4649
807.0634,95.4432
808.0276,95.4497
808.9919,95.4776
809.9561,95.5123
810.9203,95.5361
811.8846,95.5352
812.8488,95.5049
813.8130,95.4509
814.7773,95.3856
815.7415,95.3215
816.7057,95.2664
817.6700,95.2203
818.6342,95.1782
819.5984,95.1335
820.5627,95.0827
821.5269,95.0278
822.4911,94.9754
823.4554,94.9325
824.4196,94.9034
825.3839,94.887
826.3481,94.8788
827.3123,94.8747
828.2766,94.874
829.2408,94.8795
830.2050,94.895
831.1693,94.9217
832.1335,94.9577
833.0977,95.0006
834.0620,95.0513
835.0262,95.1151
835.9904,95.1988
836.9547,95.3058
837.9189,95.4323
838.8831,95.5683
839.8474,95.7018
840.8116,95.8237
841.7758,95.9295
842.7401,96.0185
843.7043,96.091
844.6685,96.1472
845.6328,96.1879
846.5970,96.2148
847.5612,96.2298
848.5255,96.2339
849.4897,96.226
850.4539,96.2052
851.4182,96.1734
852.3824,96.137
853.3466,96.1048
854.3109,96.084
855.2751,96.0765
856.2393,96.0775
857.2036,96.0789
858.1678,96.0733
859.1320,96.0564
860.0963,96.0272
861.0605,95.986
862.0247,95.9315
862.9890,95.8591
863.9532,95.7603
864.9174,95.623
865.8817,95.4331
866.8459,95.1768
867.8101,94.8436
868.7744,94.4282
869.7386,93.9317
870.7028,93.3611
871.6671,92.729
872.6313,92.0543
873.5955,91.3631
874.5598,90.6913
875.5240,90.0847
876.4882,89.5961
877.4525,89.278
878.4167,89.1732
879.3809,89.3043
880.3452,89.6683
881.3094,90.2377
882.2736,90.9669
883.2379,91.8019
884.2021,92.6884
885.1663,93.5764
886.1306,94.4226
887.0948,95.1922
888.0590,95.8622
889.0233,96.4236
889.9875,96.8806
890.9517,97.2458
891.9160,97.5326
892.8802,97.7499
893.8444,97.9008
894.8087,97.9859
895.7729,98.0075
896.7371,97.9725
897.7014,97.8919
898.6656,97.7777
899.6298,97.6405
900.5941,97.4872
901.5583,97.3206
902.5225,97.1407
903.4868,96.9479
904.4510,96.7449
905.4152,96.5391
906.3795,96.3407
907.3437,96.1599
908.3079,96.0044
909.2722,95.8793
910.2364,95.7904
911.2006,95.7464
912.1649,95.7593
913.1291,95.8392
914.0933,95.989
915.0576,96.2015
916.0218,96.462
916.9860,96.7539
917.9503,97.0642
918.9145,97.3845
919.8787,97.7098
920.8430,98.036
921.8072,98.3585
922.7714,98.6727
923.7357,98.9739
924.6999,99.2566
925.6641,99.5126
926.6284,99.7326
927.5926,99.908
928.5568,100.035
929.5211,100.114
930.4853,100.15
931.4495,100.148
932.4138,100.111
933.3780,100.043
934.3422,99.946
935.3065,99.8618
936.2707,99.8302
937.2349,99.7915
938.1992,99.7482
939.1634,99.6997
940.1276,99.6438
941.0919,99.5792
942.0561,99.5055
943.0203,99.4229
943.9846,99.3312
944.9488,99.2296
945.9130,99.1176
946.8773,98.9947
947.8415,98.8605
948.8057,98.7139
949.7700,98.5541
950.7342,98.3814
951.6984,98.1982
952.6627,98.0089
953.6269,97.817
954.5911,97.6232
955.5554,97.4238
956.5196,97.2132
957.4838,96.9876
958.4481,96.7478
959.4123,96.5007
960.3765,96.2565
961.3408,96.0254
962.3050,95.8146
963.2692,95.6264
964.2335,95.4588
965.1977,95.3071
966.1619,95.1656
967.1262,95.03
968.0904,94.8983
969.0546,94.7703
970.0189,94.6463
970.9831,94.5249
971.9473,94.4024
972.9116,94.2736
973.8758,94.135
974.8400,93.9865
975.8043,93.8304
976.7685,93.6689
977.7327,93.5011
978.6970,93.3219
979.6612,93.1256
980.6254,92.9089
981.5897,92.6731
982.5539,92.4219
983.5181,92.1586
984.4824,91.8825
985.4466,91.5906
986.4108,91.2802
987.3751,90.9516
988.3393,90.6081
989.3035,90.2534
990.2678,89.8889
991.2320,89.5125
992.1962,89.1204
993.1605,88.7079
994.1247,88.2704
995.0889,87.8029
996.0532,87.3001
997.0174,86.7587
997.9816,86.1791
998.9459,85.5654
999.9101,84.9225
1000.8743,84.2532
1001.8386,83.5561
1002.8028,82.8277
1003.7670,82.0668
1004.7313,81.2773
1005.6955,80.468
1006.6597,79.6492
1007.6240,78.829
1008.5882,78.0124
1009.5524,77.2026
1010.5167,76.4045
1011.4809,75.6259
1012.4451,74.8768
1013.4094,74.1649
1014.3736,73.493
1015.3378,72.8582
1016.3021,72.2549
1017.2663,71.6794
1018.2305,71.1314
1019.1948,70.6103
1020.1590,70.1083
1021.1232,69.605
1022.0875,69.0701
1023.0517,68.4773
1024.0160,67.822
1024.9802,67.1324
1025.9445,66.4646
1026.9087,65.8803
1027.8729,65.4192
1028.8372,65.0795
1029.8014,64.8194
1030.7656,64.5782
1031.7299,64.3049
1032.6941,63.9791
1033.6583,63.6154
1034.6226,63.2499
1035.5868,62.9208
1036.5510,62.652
1037.5153,62.4476
1038.4795,62.298
1039.4437,62.1906
1040.4080,62.1191
1041.3722,62.0882
1042.3364,62.1111
1043.3007,62.2055
1044.2649,62.3895
1045.2291,62.6795
1046.1934,63.0898
1047.1576,63.6317
1048.1218,64.3117
1049.0861,65.1282
1050.0503,66.0685
1051.0145,67.1066
1051.9788,68.203
1052.9430,69.309
1053.9072,70.3763
1054.8715,71.3701
1055.8357,72.2785
1056.7999,73.1099
1057.7642,73.8754
1058.7284,74.563
1059.6926,75.1231
1060.6569,75.4788
1061.6211,75.5646
1062.5853,75.3715
1063.5496,74.97
1064.5138,74.4893
1065.4780,74.0617
1066.4423,73.7612
1067.4065,73.5738
1068.3707,73.4158
1069.3350,73.1872
1070.2992,72.8247
1071.2634,72.3256
1072.2277,71.7361
1073.1919,71.1194
1074.1561,70.5286
1075.1204,69.9963
1076.0846,69.5391
1077.0488,69.1651
1078.0131,68.8766
1078.9773,68.67
1079.9415,68.5359
1080.9058,68.4637
1081.8700,68.4456
1082.8342,68.4771
1083.7985,68.5538
1084.7627,68.6693
1085.7269,68.8184
1086.6912,69.0023
1087.6554,69.2312
1088.6196,69.5173
1089.5839,69.8625
1090.5481,70.2507
1091.5123,70.6503
1092.4766,71.0265
1093.4408,71.3548
1094.4050,71.6251
1095.3693,71.835
1096.3335,71.981
1097.2977,72.0535
1098.2620,72.0409
1099.2262,71.9365
1100.1904,71.7429
1101.1547,71.4699
1102.1189,71.1303
1103.0831,70.7365
1104.0474,70.3021
1105.0116,69.8429
1105.9758,69.3777
1106.9401,68.9256
1107.9043,68.5053
1108.8685,68.1377
1109.8328,67.8487
1110.7970,67.6696
1111.7612,67.6302
1112.7255,67.7502
1113.6897,68.0333
1114.6539,68.4715
1115.6182,69.0536
1116.5824,69.7728
1117.5466,70.6272
1118.5109,71.6131
1119.4751,72.7186
1120.4393,73.9246
1121.4036,75.2112
1122.3678,76.565
1123.3320,77.9798
1124.2963,79.4515
1125.2605,80.9712
1126.2247,82.5248
1127.1890,84.0978
1128.1532,85.6796
1129.1174,87.2637
1130.0817,88.8398
1131.0459,90.387
1132.0101,91.8729
1132.9744,93.2604
1133.9386,94.5172
1134.9028,95.6206
1135.8671,96.5562
1136.8313,97.3145
1137.7955,97.891
1138.7598,98.2909
1139.7240,98.5325
1140.6882,98.646
1141.6525,98.6639
1142.6167,98.6115
1143.5809,98.5029
1144.5452,98.3467
1145.5094,98.1554
1146.4736,97.949
1147.4379,97.7509
1148.4021,97.5796
1149.3663,97.4432
1150.3306,97.3419
1151.2948,97.2767
1152.2590,97.254
1153.2233,97.2849
1154.1875,97.3782
1155.1517,97.5352
1156.1160,97.7495
1157.0802,98.0114
1158.0444,98.3114
1159.0087,98.6385
1159.9729,98.9772
1160.9371,99.3061
1161.9014,99.6026
1162.8656,99.8502
1163.8298,100.043
1164.7941,100.185
1165.7583,100.272
1166.7225,100.196
1167.6868,100.076
1168.6510,99.9112
1169.6152,99.703
1170.5795,99.4543
1171.5437,99.1656
1172.5079,98.8327
1173.4722,98.4482
1174.4364,98.0061
1175.4006,97.5061
1176.3649,96.953
1177.3291,96.354
1178.2933,95.7157
1179.2576,95.0454
1180.2218,94.3531
1181.1860,93.6524
1182.1503,92.9586
1183.1145,92.2838
1184.0787,91.6345
1185.0430,91.0122
1186.0072,90.4159
1186.9714,89.8445
1187.9357,89.2962
1188.8999,88.7667
1189.8641,88.2493
1190.8284,87.7365
1191.7926,87.2233
1192.7568,86.7082
1193.7211,86.1912
1194.6853,85.671
1195.6495,85.1432
1196.6138,84.6016
1197.5780,84.0415
1198.5422,83.4625
1199.5065,82.9253
1200.4707,82.3157
1201.4349,81.7035
1202.3992,81.0955
1203.3634,80.4993
1204.3276,79.9244
1205.2919,79.3812
1206.2561,78.8789
1207.2203,78.4236
1208.1846,78.0188
1209.1488,77.6682
1210.1130,77.3773
1211.0773,77.1533
1212.0415,77.0027
1213.0057,76.9275
1213.9700,76.9256
1214.9342,76.9927
1215.8984,77.1254
1216.8627,77.323
1217.8269,77.5845
1218.7911,77.9048
1219.7554,78.2731
1220.7196,78.6755
1221.6838,79.0991
1222.6481,79.5352
1223.6123,79.9788
1224.5765,80.4262
1225.5408,80.8718
1226.5050,81.3076
1227.4692,81.7256
1228.4335,82.1195
1229.3977,82.4861
1230.3619,82.8256
1231.3262,83.1414
1232.2904,83.4398
1233.2546,83.7269
1234.2189,84.0036
1235.1831,84.2606
1236.1473,84.4789
1237.1116,84.6394
1238.0758,84.737
1239.0400,84.7916
1240.0043,84.8453
1240.9685,84.9447
1241.9327,85.1171
1242.8970,85.3558
1243.8612,85.6231
1244.8254,85.8717
1245.7897,86.0686
1246.7539,86.2091
1247.7181,86.3115
1248.6824,86.401
1249.6466,86.4932
1250.6108,86.5878
1251.5751,86.6724
1252.5393,86.7318
1253.5035,86.7556
1254.4678,86.7401
1255.4320,86.6877
1256.3962,86.6048
1257.3605,86.5004
1258.3247,86.3849
1259.2889,86.2677
1260.2532,86.1552
1261.2174,86.0496
1262.1816,85.9509
1263.1459,85.8605
1264.1101,85.7829
1265.0743,85.7253
1266.0386,85.6959
1267.0028,85.7014
1267.9670,85.7473
1268.9313,85.8377
1269.8955,85.9761
1270.8597,86.1638
1271.8240,86.3983
1272.7882,86.6727
1273.7524,86.9775
1274.7167,87.3033
1275.6809,87.6429
1276.6451,87.992
1277.6094,88.348
1278.5736,88.7089
1279.5378,89.0717
1280.5021,89.4323
1281.4663,89.7846
1282.4305,90.1214
1283.3948,90.4358
1284.3590,90.7229
1285.3232,90.982
1286.2875,91.2158
1287.2517,91.4286
1288.2159,91.623
1289.1802,91.7976
1290.1444,91.9471
1291.1086,92.0658
1292.0729,92.1508
1293.0371,92.2043
1294.0013,92.2327
1294.9656,92.2436
1295.9298,92.2429
1296.8940,92.2323
1297.8583,92.2099
1298.8225,92.1719
1299.7867,92.1161
1300.7510,92.0427
1301.7152,91.9546
1302.6794,91.8571
1303.6437,91.7563
1304.6079,91.6562
1305.5721,91.5578
1306.5364,91.4582
1307.5006,91.3518
1308.4648,91.2331
1309.4291,91.1001
1310.3933,90.9564
1311.3575,90.8094
1312.3218,90.667
1313.2860,90.5327
1314.2502,90.4045
1315.2145,90.2777
1316.1787,90.1513
1317.1429,90.031
1318.1072,89.9283
1319.0714,89.8529
1320.0356,89.8058
1320.9999,89.7792
1321.9641,89.7635
1322.9283,89.7558
1323.8926,89.7642
1324.8568,89.804
1325.8210,89.8909
1326.7853,90.0349
1327.7495,90.2375
1328.7137,90.4951
1329.6780,90.8025
1330.6422,91.1531
1331.6064,91.5343
1332.5707,91.9259
1333.5349,92.3029
1334.4991,92.646
1335.4634,92.9544
1336.4276,93.2537
1337.3918,93.5951
1338.3561,94.0337
1339.3203,94.5864
1340.2845,95.2055
1341.2488,95.8072
1342.2130,96.3287
1343.1772,96.7536
1344.1415,97.0975
1345.1057,97.3853
1346.0699,97.6376
1347.0342,97.8675
1347.9984,98.0804
1348.9626,98.2749
1349.9269,98.4443
1350.8911,98.5805
1351.8553,98.6797
1352.8196,98.7458
1353.7838,98.788
1354.7480,98.814
1355.7123,98.8219
1356.6765,98.8004
1357.6407,98.7358
1358.6050,98.6199
1359.5692,98.4554
1360.5334,98.2604
1361.4977,98.0678
1362.4619,97.9052
1363.4261,97.7674
1364.3904,97.621
1365.3546,97.4388
1366.3188,97.2197
1367.2831,96.9822
1368.2473,96.7503
1369.2115,96.5424
1370.1758,96.3678
1371.1400,96.2313
1372.1042,96.1441
1373.0685,96.1289
1374.0327,96.2068
1374.9969,96.3719
1375.9612,96.5845
1376.9254,96.8032
1377.8896,97.0153
1378.8539,97.2337
1379.8181,97.4715
1380.7823,97.7223
1381.7466,97.9633
1382.7108,98.177
1383.6750,98.3705
1384.6393,98.5777
1385.6035,98.8395
1386.5677,99.164
1387.5320,99.4356
1388.4962,99.5796
1389.4604,99.5241
1390.4247,99.2791
1391.3889,98.917
1392.3531,98.5328
1393.3174,98.2259
1394.2816,98.0836
1395.2458,98.1389
1396.2101,98.3328
1397.1743,98.5393
1398.1385,98.6426
1399.1028,98.5898
1400.0670,98.3895
1401.0313,98.0813
1401.9955,97.7083
1402.9597,97.3037
1403.9240,96.8898
1404.8882,96.4795
1405.8524,96.074
1406.8167,95.6618
1407.7809,95.226
1408.7451,94.7524
1409.7094,94.2313
1410.6736,93.6588
1411.6378,93.0419
1412.6021,92.4001
1413.5663,91.7569
1414.5305,91.1256
1415.4948,90.499
1416.4590,89.8558
1417.4232,89.1937
1418.3875,88.5546
1419.3517,87.9878
1420.3159,87.497
1421.2802,87.0693
1422.2444,86.7215
1423.2086,86.4875
1424.1729,86.3845
1425.1371,86.4008
1426.1013,86.5132
1427.0656,86.7135
1428.0298,87.0161
1428.9940,87.4336
1429.9583,87.9394
1430.9225,88.4632
1431.8867,88.9391
1432.8510,89.3485
1433.8152,89.7106
1434.7794,90.0395
1435.7437,90.307
1436.7079,90.4265
1437.6721,90.2931
1438.6364,89.869
1439.6006,89.209
1440.5648,88.3983
1441.5291,87.4997
1442.4933,86.5484
1443.4575,85.5666
1444.4218,84.5732
1445.3860,83.5836
1446.3502,82.614
1447.3145,81.6924
1448.2787,80.8595
1449.2429,80.1492
1450.2072,79.5706
1451.1714,79.1148
1452.1356,78.77
1453.0999,78.5195
1454.0641,78.3313
1455.0283,78.1752
1455.9926,78.1044
1456.9568,78.2743
1457.9210,78.647
1458.8853,78.9198
1459.8495,78.9719
1460.8137,78.9285
1461.7780,78.9626
1462.7422,79.2227
1463.7064,79.828
1464.6707,80.8024
1465.6349,81.9838
1466.5991,83.1194
1467.5634,84.085
1468.5276,84.9321
1469.4918,85.7832
1470.4561,86.7561
1471.4203,87.9472
1472.3845,89.3871
1473.3488,90.9223
1474.3130,92.2422
1475.2772,93.1566
1476.2415,93.7007
1477.2057,93.9923
1478.1699,94.1201
1479.1342,94.1297
1480.0984,94.0422
1481.0626,93.867
1482.0269,93.6081
1482.9911,93.2679
1483.9553,92.8507
1484.9196,92.358
1485.8838,91.7793
1486.8480,91.0981
1487.8123,90.3387
1488.7765,89.6138
1489.7407,89.042
1490.7050,88.6017
1491.6692,88.1865
1492.6334,87.736
1493.5977,87.2367
1494.5619,86.6744
1495.5261,86.0333
1496.4904,85.3428
1497.4546,84.6971
1498.4188,84.1651
1499.3831,83.7197
1500.3473,83.3169
1501.3115,82.9658
1502.2758,82.6961
1503.2400,82.492
1504.2042,82.2382
1505.1685,81.7126
1506.1327,80.7705
1507.0969,79.7322
1508.0612,79.09
1509.0254,78.7562
1509.9896,78.4596
1510.9539,78.1384
1511.9181,77.8406
1512.8823,77.6395
1513.8466,77.6264
1514.8108,77.897
1515.7750,78.5012
1516.7393,79.4047
1517.7035,80.5404
1518.6677,81.9207
1519.6320,83.664
1520.5962,85.8403
1521.5604,88.2627
1522.5247,90.5469
1523.4889,92.4463
1524.4531,94.0171
1525.4174,95.4469
1526.3816,96.8202
1527.3458,98.0602
1528.3101,99.0503
1529.2743,99.7607
1530.2385,100.263
1531.2028,100.673
1532.1670,101.086
1533.1312,101.52
1534.0955,101.899
1535.0597,102.149
1536.0239,102.275
1536.9882,102.312
1537.9524,102.221
1538.9166,101.895
1539.8809,101.377
1540.8451,101.076
1541.8093,101.242
1542.7736,101.57
1543.7378,101.791
1544.7020,101.874
1545.6663,101.847
1546.6305,101.733
1547.5947,101.555
1548.5590,101.347
1549.5232,101.136
1550.4874,100.928
1551.4517,100.71
1552.4159,100.473
1553.3801,100.236
1554.3444,100.035
1555.3086,99.8917
1556.2728,99.8143
1557.2371,99.7554
1558.2013,99.8418
1559.1655,100.072
1560.1298,100.021
1561.0940,99.5221
1562.0582,98.8099
1563.0225,98.1236
1563.9867,97.5692
1564.9509,97.1524
1565.9152,96.8225
1566.8794,96.5063
1567.8436,96.141
1568.8079,95.7069
1569.7721,95.2288
1570.7363,94.7452
1571.7006,94.2842
1572.6648,93.8457
1573.6290,93.3795
1574.5933,92.7966
1575.5575,92.0555
1576.5217,91.2459
1577.4860,90.494
1578.4502,89.817
1579.4144,89.1688
1580.3787,88.5173
1581.3429,87.8482
1582.3071,87.1587
1583.2714,86.4611
1584.2356,85.7775
1585.1998,85.1218
1586.1641,84.4942
1587.1283,83.8909
1588.0925,83.3156
1589.0568,82.7794
1590.0210,82.2913
1590.9852,81.8531
1591.9495,81.463
1592.9137,81.1229
1593.8779,80.8399
1594.8422,80.618
1595.8064,80.4487
1596.7706,80.3121
1597.7349,80.1875
1598.6991,80.0647
1599.6633,79.9478
1600.6276,79.8512
1601.5918,79.7923
1602.5560,79.781
1603.5203,79.8131
1604.4845,79.8748
1605.4487,79.956
1606.4130,80.063
1607.3772,80.219
1608.3414,80.4465
1609.3057,80.7402
1610.2699,81.0601
1611.2341,81.3649
1612.1984,81.6494
1613.1626,81.9501
1614.1268,82.3336
1615.0911,82.8816
1616.0553,83.6263
1617.0195,84.4378
1617.9838,85.0898
1618.9480,85.4998
1619.9122,85.7709
1620.8765,86.0508
1621.8407,86.4295
1622.8049,86.9079
1623.7692,87.4097
1624.7334,87.8412
1625.6976,88.1681
1626.6619,88.4242
1627.6261,88.6521
1628.5903,88.8577
1629.5546,89.0246
1630.5188,89.1526
1631.4830,89.2662
1632.4473,89.3797
1633.4115,89.4682
1634.3757,89.4999
1635.3400,89.5181
1636.3042,89.5966
1637.2684,89.678
1638.2327,89.6623
1639.1969,89.5571
1640.1611,89.4292
1641.1254,89.3301
1642.0896,89.2743
1643.0538,89.2337
1644.0181,89.1391
1644.9823,88.9206
1645.9465,88.6067
1646.9108,88.3442
1647.8750,88.2386
1648.8392,88.2891
1649.8035,88.4694
1650.7677,88.7277
1651.7319,88.9594
1652.6962,89.0982
1653.6604,89.1622
1654.6246,89.0513
1655.5889,88.6998
1656.5531,88.2606
1657.5173,87.9048
1658.4816,87.6979
1659.4458,87.6165
1660.4100,87.6013
1661.3743,87.6087
1662.3385,87.6233
1663.3027,87.6295
1664.2670,87.6089
1665.2312,87.5622
1666.1954,87.5
1667.1597,87.4202
1668.1239,87.3198
1669.0881,87.2292
1670.0524,87.1982
1671.0166,87.2361
1671.9808,87.3159
1672.9451,87.4221
1673.9093,87.5446
1674.8735,87.6462
1675.8378,87.6633
1676.8020,87.5529
1677.7662,87.3439
1678.7305,87.1266
1679.6947,86.9919
1680.6589,86.9785
1681.6232,87.0639
1682.5874,87.2067
1683.5516,87.3906
1684.5159,87.5548
1685.4801,87.5661
1686.4443,87.3967
1687.4086,87.1559
1688.3728,86.9591
1689.3370,86.8598
1690.3013,86.8552
1691.2655,86.9099
1692.2297,86.974
1693.1940,86.9907
1694.1582,86.909
1695.1224,86.7141
1696.0867,86.467
1697.0509,86.3029
1698.0151,86.3396
1698.9794,86.5447
1699.9436,86.7259
1700.9078,86.7
1701.8721,86.4449
1702.8363,86.0781
1703.8005,85.7473
1704.7648,85.5519
1705.7290,85.5148
1706.6932,85.5845
1707.6575,85.6742
1708.6217,85.7238
1709.5859,85.7286
1710.5502,85.718
1711.5144,85.7181
1712.4786,85.7335
1713.4429,85.7554
1714.4071,85.7964
1715.3713,85.9465
1716.3356,86.3635
1717.2998,87.0563
1718.2640,87.7418
1719.2283,88.165
1720.1925,88.3466
1721.1567,88.447
1722.1210,88.5969
1723.0852,88.8432
1724.0494,89.1603
1725.0137,89.4859
1725.9779,89.7634
1726.9421,89.9721
1727.9064,90.1299
1728.8706,90.2771
1729.8348,90.4562
1730.7991,90.704
1731.7633,91.0582
1732.7275,91.5482
1733.6918,92.1176
1734.6560,92.5868
1735.6202,92.8265
1736.5845,92.8938
1737.5487,92.936
1738.5129,93.0592
1739.4772,93.2838
1740.4414,93.5598
1741.4056,93.8121
1742.3699,93.9928
1743.3341,94.1071
1744.2983,94.1937
1745.2626,94.2906
1746.2268,94.4215
1747.1910,94.612
1748.1553,94.9065
1749.1195,95.3427
1750.0837,95.8752
1751.0480,96.3641
1752.0122,96.6942
1752.9764,96.8619
1753.9407,96.9387
1754.9049,96.9986
1755.8691,97.0801
1756.8334,97.1867
1757.7976,97.3057
1758.7618,97.4288
1759.7261,97.5617
1760.6903,97.7153
1761.6545,97.8867
1762.6188,98.0519
1763.5830,98.1836
1764.5472,98.2753
1765.5115,98.3418
1766.4757,98.3998
1767.4399,98.4516
1768.4042,98.4862
1769.3684,98.4968
1770.3326,98.5053
1771.2969,98.5654
1772.2611,98.7101
1773.2253,98.8908
1774.1896,99.0193
1775.1538,99.0626
1776.1180,99.0562
1777.0823,99.0517
1778.0465,99.0769
1779.0107,99.1339
1779.9750,99.2134
1780.9392,99.3077
1781.9034,99.4133
1782.8677,99.5244
1783.8319,99.6259
1784.7961,99.6955
1785.7604,99.7181
1786.7246,99.6998
1787.6888,99.6653
1788.6531,99.637
1789.6173,99.6184
1790.5815,99.6026
1791.5458,99.5955
1792.5100,99.6069
1793.4742,99.6161
1794.4385,99.5928
1795.4027,99.5445
1796.3669,99.5061
1797.3312,99.5023
1798.2954,99.5335
1799.2596,99.5877
1800.2239,99.654
1801.1881,99.7227
1802.1523,99.7811
1803.1166,99.8172
1804.0808,99.8274
1805.0450,99.8147
1806.0093,99.7838
1806.9735,99.7392
1807.9377,99.6886
1808.9020,99.6467
1809.8662,99.6327
1810.8304,99.6564
1811.7947,99.708
1812.7589,99.7658
1813.7231,99.8126
1814.6874,99.8432
1815.6516,99.8587
1816.6158,99.8605
1817.5801,99.8487
1818.5443,99.8239
1819.5085,99.8146
1820.4728,99.8256
1821.4370,99.8394
1822.4012,99.8566
1823.3655,99.8724
1824.3297,99.879
1825.2939,99.8686
1826.2582,99.8403
1827.2224,99.8063
1828.1866,99.7918
1829.1509,99.8235
1830.1151,99.9032
1831.0793,99.9949
1832.0436,100.054
1833.0078,100.068
1833.9720,100.054
1834.9363,100.037
1835.9005,100.028
1836.8647,100.028
1837.8290,100.035
1838.7932,100.05
1839.7574,100.079
1840.7217,100.126
1841.6859,100.174
1842.6501,100.2
1843.6144,100.198
1844.5786,100.182
1845.5428,100.162
1846.5071,100.141
1847.4713,100.13
1848.4355,100.143
1849.3998,100.183
1850.3640,100.236
1851.3282,100.282
1852.2925,100.308
1853.2567,100.313
1854.2209,100.306
1855.1852,100.292
1856.1494,100.277
1857.1136,100.262
1858.0779,100.252
1859.0421,100.249
1860.0063,100.256
1860.9706,100.261
1861.9348,100.253
1862.8990,100.219
1863.8633,100.157
1864.8275,100.072
1865.7917,99.9769
1866.7560,99.8985
1867.7202,99.8822
1868.6844,99.9578
1869.6487,100.095
1870.6129,100.224
1871.5771,100.301
1872.5414,100.331
1873.5056,100.339
1874.4698,100.341
1875.4341,100.344
1876.3983,100.346
1877.3625,100.346
1878.3268,100.344
1879.2910,100.342
1880.2552,100.339
1881.2195,100.332
1882.1837,100.32
1883.1479,100.301
1884.1122,100.279
1885.0764,100.256
1886.0406,100.237
1887.0049,100.226
1887.9691,100.223
1888.9333,100.228
1889.8976,100.235
1890.8618,100.233
1891.8260,100.217
1892.7903,100.191
1893.7545,100.169
1894.7188,100.163
1895.6830,100.178
1896.6472,100.209
1897.6115,100.243
1898.5757,100.266
1899.5399,100.272
1900.5042,100.265
1901.4684,100.249
1902.4326,100.228
1903.3969,100.204
1904.3611,100.172
1905.3253,100.129
1906.2896,100.08
1907.2538,100.033
1908.2180,100.003
1909.1823,100.001
1910.1465,100.024
1911.1107,100.056
1912.0750,100.082
1913.0392,100.096
1914.0034,100.1
1914.9677,100.102
1915.9319,100.1
1916.8961,100.092
1917.8604,100.068
1918.8246,100.021
1919.7888,99.9549
1920.7531,99.887
1921.7173,99.8429
1922.6815,99.8412
1923.6458,99.8824
1924.6100,99.9474
1925.5742,100.01
1926.5385,100.054
1927.5027,100.076
1928.4669,100.082
1929.4312,100.08
1930.3954,100.075
1931.3596,100.073
1932.3239,100.073
1933.2881,100.08
1934.2523,100.092
1935.2166,100.106
1936.1808,100.117
1937.1450,100.119
1938.1093,100.106
1939.0735,100.078
1940.0377,100.04
1941.0020,99.9994
1941.9662,99.9694
1942.9304,99.9602
1943.8947,99.9724
1944.8589,99.9985
1945.8231,100.032
1946.7874,100.069
1947.7516,100.108
1948.7158,100.144
1949.6801,100.171
1950.6443,100.185
1951.6085,100.187
1952.5728,100.184
1953.5370,100.183
1954.5012,100.188
1955.4655,100.198
1956.4297,100.212
1957.3939,100.224
1958.3582,100.233
1959.3224,100.241
1960.2866,100.246
1961.2509,100.247
1962.2151,100.241
1963.1793,100.224
1964.1436,100.199
1965.1078,100.175
1966.0720,100.165
1967.0363,100.179
1968.0005,100.216
1968.9647,100.266
1969.9290,100.313
1970.8932,100.346
1971.8574,100.364
1972.8217,100.37
1973.7859,100.37
1974.7501,100.369
1975.7144,100.37
1976.6786,100.371
1977.6428,100.374
1978.6071,100.376
1979.5713,100.379
1980.5355,100.383
1981.4998,100.389
1982.4640,100.393
1983.4282,100.394
1984.3925,100.388
1985.3567,100.374
1986.3209,100.353
1987.2852,100.328
1988.2494,100.302
1989.2136,100.281
1990.1779,100.268
1991.1421,100.269
1992.1063,100.286
1993.0706,100.314
1994.0348,100.346
1994.9990,100.372
1995.9633,100.39
1996.9275,100.399
1997.8917,100.403
1998.8560,100.406
1999.8202,100.41
2000.7844,100.417
2001.7487,100.422
2002.7129,100.424
2003.6771,100.42
2004.6414,100.411
2005.6056,100.4
2006.5698,100.39
2007.5341,100.385
2008.4983,100.385
2009.4625,100.389
2010.4268,100.393
2011.3910,100.393
2012.3552,100.385
2013.3195,100.365
2014.2837,100.337
2015.2479,100.308
2016.2122,100.287
2017.1764,100.282
2018.1406,100.293
2019.1049,100.314
2020.0691,100.336
2021.0333,100.352
2021.9976,100.362
2022.9618,100.365
2023.9260,100.365
2024.8903,100.365
2025.8545,100.365
2026.8187,100.366
2027.7830,100.368
2028.7472,100.368
2029.7114,100.366
2030.6757,100.361
2031.6399,100.355
2032.6041,100.349
2033.5684,100.344
2034.5326,100.343
2035.4968,100.342
2036.4611,100.339
2037.4253,100.33
2038.3895,100.315
2039.3538,100.297
2040.3180,100.283
2041.2822,100.277
2042.2465,100.28
2043.2107,100.29
2044.1749,100.3
2045.1392,100.306
2046.1034,100.307
2047.0676,100.303
2048.0320,100.296
2048.9961,100.288
2049.9604,100.281
2050.9246,100.275
2051.8889,100.272
2052.8530,100.27
2053.8174,100.269
2054.7815,100.269
2055.7458,100.269
2056.7100,100.267
2057.6743,100.263
2058.6384,100.256
2059.6028,100.245
2060.5669,100.229
2061.5313,100.21
2062.4954,100.193
2063.4597,100.182
2064.4238,100.181
2065.3882,100.192
2066.3523,100.212
2067.3167,100.232
2068.2808,100.249
2069.2451,100.259
2070.2092,100.262
2071.1736,100.262
2072.1377,100.26
2073.1021,100.258
2074.0662,100.256
2075.0305,100.255
2075.9946,100.254
2076.9590,100.255
2077.9231,100.256
2078.8875,100.258
2079.8516,100.26
2080.8159,100.262
2081.7800,100.262
2082.7444,100.262
2083.7085,100.259
2084.6729,100.255
2085.6370,100.25
2086.6013,100.246
2087.5654,100.242
2088.5298,100.24
2089.4939,100.24
2090.4583,100.241
2091.4224,100.244
2092.3867,100.247
2093.3508,100.249
2094.3152,100.25
2095.2793,100.25
2096.2437,100.25
2097.2078,100.25
2098.1721,100.25
2099.1362,100.249
2100.1006,100.245
2101.0647,100.242
2102.0291,100.238
2102.9932,100.234
2103.9575,100.231
2104.9216,100.23
2105.8860,100.23
2106.8501,100.23
2107.8145,100.228
2108.7786,100.224
2109.7429,100.216
2110.7070,100.206
2111.6714,100.196
2112.6355,100.188
2113.5999,100.185
2114.5640,100.187
2115.5283,100.193
2116.4924,100.202
2117.4568,100.211
2118.4209,100.216
2119.3853,100.216
2120.3494,100.213
2121.3137,100.209
2122.2778,100.204
2123.2422,100.2
2124.2063,100.196
2125.1707,100.193
2126.1348,100.19
2127.0991,100.189
2128.0632,100.191
2129.0276,100.196
2129.9917,100.201
2130.9561,100.204
2131.9202,100.204
2132.8845,100.2
2133.8486,100.194
2134.8130,100.19
2135.7771,100.189
2136.7415,100.193
2137.7056,100.202
2138.6699,100.214
2139.6340,100.225
2140.5984,100.234
2141.5625,100.241
2142.5269,100.244
2143.4910,100.248
2144.4553,100.252
2145.4194,100.259
2146.3838,100.268
2147.3479,100.275
2148.3123,100.28
2149.2764,100.281
2150.2407,100.278
2151.2048,100.273
2152.1692,100.271
2153.1333,100.272
2154.0977,100.278
2155.0618,100.286
2156.0261,100.295
2156.9902,100.305
2157.9546,100.313
2158.9187,100.32
2159.8831,100.326
2160.8472,100.33
2161.8115,100.335
2162.7756,100.339
2163.7400,100.345
2164.7041,100.35
2165.6685,100.353
2166.6326,100.355
2167.5969,100.355
2168.5610,100.354
2169.5254,100.355
2170.4895,100.357
2171.4539,100.361
2172.4180,100.366
2173.3823,100.372
2174.3464,100.378
2175.3108,100.384
2176.2749,100.391
2177.2393,100.398
2178.2034,100.404
2179.1677,100.409
2180.1318,100.412
2181.0962,100.412
2182.0603,100.409
2183.0247,100.405
2183.9888,100.401
2184.9531,100.4
2185.9172,100.402
2186.8816,100.409
2187.8457,100.42
2188.8101,100.431
2189.7742,100.44
2190.7385,100.446
2191.7026,100.448
2192.6670,100.448
2193.6311,100.447
2194.5955,100.447
2195.5596,100.448
2196.5239,100.45
2197.4880,100.451
2198.4524,100.452
2199.4165,100.452
2200.3809,100.451
2201.3450,100.45
2202.3093,100.45
2203.2734,100.452
2204.2378,100.455
2205.2019,100.46
2206.1663,100.463
2207.1304,100.463
2208.0947,100.462
2209.0588,100.46
2210.0232,100.457
2210.9873,100.454
2211.9517,100.449
2212.9158,100.443
2213.8801,100.437
2214.8442,100.432
2215.8086,100.43
2216.7727,100.431
2217.7371,100.432
2218.7012,100.43
2219.6655,100.425
2220.6296,100.417
2221.5940,100.409
2222.5581,100.404
2223.5225,100.4
2224.4866,100.398
2225.4509,100.394
2226.4150,100.389
2227.3794,100.381
2228.3435,100.371
2229.3079,100.361
2230.2720,100.349
2231.2363,100.338
2232.2004,100.329
2233.1648,100.323
2234.1289,100.319
2235.0933,100.318
2236.0574,100.316
2237.0217,100.313
2237.9858,100.308
2238.9502,100.301
2239.9143,100.292
2240.8787,100.28
2241.8428,100.266
2242.8071,100.251
2243.7712,100.236
2244.7356,100.224
2245.6997,100.214
2246.6641,100.206
2247.6282,100.198
2248.5925,100.187
2249.5566,100.173
2250.5210,100.157
2251.4851,100.139
2252.4495,100.12
2253.4136,100.1
2254.3779,100.082
2255.3420,100.065
2256.3064,100.052
2257.2705,100.043
2258.2349,100.035
2259.1990,100.029
2260.1633,100.022
2261.1274,100.015
2262.0918,100.007
2263.0559,100
2264.0203,99.9954
2264.9844,99.9919
2265.9487,99.9894
2266.9128,99.9874
2267.8772,99.9849
2268.8413,99.9809
2269.8057,99.9745
2270.7698,99.9663
2271.7341,99.9578
2272.6982,99.9516
2273.6626,99.9496
2274.6267,99.9527
2275.5911,99.96
2276.5552,99.9704
2277.5195,99.9832
2278.4836,99.9983
2279.4480,100.015
2280.4121,100.031
2281.3765,100.043
2282.3406,100.045
2283.3049,100.034
2284.2690,100.009
2285.2334,99.9728
2286.1975,99.9291
2287.1619,99.8831
2288.1260,99.8382
2289.0903,99.7951
2290.0544,99.7527
2291.0188,99.7102
2291.9829,99.6684
2292.9473,99.6302
2293.9114,99.5995
2294.8757,99.5793
2295.8398,99.5703
2296.8042,99.5714
2297.7683,99.5814
2298.7327,99.6008
2299.6968,99.6319
2300.6611,99.6771
2301.6252,99.7355
2302.5896,99.8002
2303.5537,99.8593
2304.5181,99.9
2305.4822,99.9158
2306.4465,99.9119
2307.4106,99.9063
2308.3750,99.9231
2309.3391,99.9812
2310.3035,100.083
2311.2676,100.212
2312.2319,100.341
2313.1960,100.449
2314.1604,100.529
2315.1245,100.591
2316.0889,100.656
2317.0530,100.741
2318.0173,100.851
2318.9814,100.969
2319.9458,101.063
2320.9099,101.09
2321.8743,101.014
2322.8384,100.826
2323.8027,100.561
2324.7668,100.284
2325.7312,100.074
2326.6953,99.9851
2327.6597,100.027
2328.6238,100.155
2329.5881,100.285
2330.5522,100.336
2331.5166,100.266
2332.4807,100.092
2333.4451,99.8714
2334.4092,99.6702
2335.3735,99.526
2336.3376,99.44
2337.3020,99.3853
2338.2661,99.3254
2339.2305,99.2364
2340.1946,99.1275
2341.1589,99.0639
2342.1230,99.1402
2343.0874,99.4136
2344.0515,99.7792
2345.0159,99.9897
2345.9800,99.8938
2346.9443,99.5782
2347.9084,99.2591
2348.8728,99.1165
2349.8369,99.2089
2350.8013,99.463
2351.7654,99.7162
2352.7297,99.8098
2353.6938,99.698
2354.6582,99.466
2355.6223,99.2164
2356.5867,98.9763
2357.5508,98.7342
2358.5151,98.5116
2359.4792,98.3594
2360.4436,98.3074
2361.4077,98.3491
2362.3721,98.4753
2363.3362,98.6922
2364.3005,99.0008
2365.2646,99.375
2366.2290,99.7715
2367.1931,100.156
2368.1575,100.514
2369.1216,100.843
2370.0859,101.133
2371.0500,101.374
2372.0144,101.553
2372.9785,101.662
2373.9429,101.696
2374.9070,101.65
2375.8713,101.525
2376.8354,101.33
2377.7998,101.085
2378.7639,100.821
2379.7283,100.569
2380.6924,100.354
2381.6567,100.191
2382.6208,100.083
2383.5852,100.025
2384.5493,100.007
2385.5137,100.016
2386.4778,100.038
2387.4421,100.063
2388.4063,100.082
2389.3706,100.09
2390.3347,100.09
2391.2991,100.084
2392.2632,100.079
2393.2275,100.076
2394.1917,100.077
2395.1560,100.079
2396.1201,100.083
2397.0845,100.089
2398.0486,100.097
2399.0129,100.106
2399.9771,100.111
2400.9414,100.111
2401.9055,100.103
2402.8699,100.09
2403.8340,100.079
2404.7983,100.071
2405.7625,100.067
2406.7268,100.067
2407.6909,100.067
2408.6553,100.068
2409.6194,100.07
2410.5837,100.074
2411.5479,100.078
2412.5122,100.081
2413.4763,100.081
2414.4407,100.08
2415.4048,100.08
2416.3691,100.083
2417.3333,100.089
2418.2976,100.096
2419.2617,100.103
2420.2261,100.108
2421.1902,100.111
2422.1545,100.112
2423.1187,100.11
2424.0830,100.107
2425.0471,100.104
2426.0115,100.106
2426.9756,100.114
2427.9399,100.127
2428.9041,100.141
2429.8684,100.15
2430.8325,100.153
2431.7969,100.152
2432.7610,100.151
2433.7253,100.152
2434.6895,100.154
2435.6538,100.155
2436.6179,100.154
2437.5823,100.154
2438.5464,100.156
2439.5107,100.163
2440.4749,100.173
2441.4392,100.184
2442.4033,100.193
2443.3677,100.199
2444.3318,100.205
2445.2961,100.209
2446.2603,100.212
2447.2246,100.211
2448.1887,100.207
2449.1531,100.2
2450.1172,100.195
2451.0815,100.192
2452.0457,100.191
2453.0100,100.191
2453.9741,100.191
2454.9385,100.191
2455.9026,100.191
2456.8669,100.192
2457.8311,100.192
2458.7954,100.19
2459.7595,100.185
2460.7239,100.18
2461.6880,100.177
2462.6523,100.177
2463.6165,100.18
2464.5808,100.183
2465.5449,100.184
2466.5093,100.183
2467.4734,100.179
2468.4377,100.173
2469.4019,100.166
2470.3662,100.158
2471.3303,100.151
2472.2947,100.147
2473.2588,100.148
2474.2231,100.154
2475.1873,100.162
2476.1516,100.168
2477.1157,100.168
2478.0801,100.163
2479.0442,100.157
2480.0085,100.152
2480.9727,100.149
2481.9370,100.148
2482.9011,100.148
2483.8655,100.146
2484.8296,100.143
2485.7939,100.141
2486.7581,100.139
2487.7224,100.141
2488.6865,100.144
2489.6509,100.15
2490.6150,100.155
2491.5793,100.16
2492.5435,100.162
2493.5078,100.161
2494.4719,100.16
2495.4363,100.161
2496.4004,100.166
2497.3647,100.174
2498.3289,100.183
2499.2932,100.188
2500.2573,100.187
2501.2217,100.182
2502.1858,100.177
2503.1501,100.176
2504.1143,100.181
2505.0786,100.19
2506.0427,100.2
2507.0071,100.209
2507.9712,100.214
2508.9355,100.217
2509.8997,100.219
2510.8640,100.218
2511.8281,100.215
2512.7925,100.212
2513.7566,100.212
2514.7209,100.217
2515.6851,100.228
2516.6494,100.241
2517.6135,100.252
2518.5779,100.259
2519.5420,100.26
2520.5063,100.258
2521.4705,100.256
2522.4348,100.257
2523.3989,100.259
2524.3633,100.264
2525.3274,100.271
2526.2917,100.279
2527.2559,100.287
2528.2202,100.293
2529.1843,100.296
2530.1487,100.294
2531.1128,100.287
2532.0771,100.279
2533.0413,100.27
2534.0056,100.263
2534.9697,100.257
2535.9341,100.256
2536.8982,100.26
2537.8625,100.269
2538.8267,100.283
2539.7910,100.295
2540.7551,100.303
2541.7195,100.306
2542.6836,100.306
2543.6479,100.306
2544.6121,100.306
2545.5764,100.306
2546.5405,100.305
2547.5049,100.304
2548.4690,100.304
2549.4333,100.307
2550.3975,100.315
2551.3618,100.323
2552.3259,100.331
2553.2903,100.338
2554.2544,100.345
2555.2188,100.354
2556.1829,100.363
2557.1472,100.371
2558.1113,100.375
2559.0757,100.377
2560.0398,100.379
2561.0042,100.384
2561.9683,100.388
2562.9326,100.388
2563.8967,100.381
2564.8611,100.37
2565.8252,100.364
2566.7896,100.367
2567.7537,100.379
2568.7180,100.395
2569.6821,100.406
2570.6465,100.41
2571.6106,100.41
2572.5750,100.408
2573.5391,100.406
2574.5034,100.403
2575.4675,100.396
2576.4319,100.388
2577.3960,100.384
2578.3604,100.387
2579.3245,100.396
2580.2888,100.406
2581.2529,100.413
2582.2173,100.416
2583.1814,100.417
2584.1458,100.419
2585.1099,100.42
2586.0742,100.416
2587.0383,100.406
2588.0027,100.392
2588.9668,100.379
2589.9312,100.373
2590.8953,100.374
2591.8596,100.376
2592.8237,100.377
2593.7881,100.375
2594.7522,100.374
2595.7166,100.376
2596.6807,100.383
2597.6450,100.391
2598.6091,100.398
2599.5735,100.403
2600.5376,100.41
2601.5020,100.42
2602.4661,100.431
2603.4304,100.439
2604.3945,100.442
2605.3589,100.44
2606.3230,100.44
2607.2874,100.446
2608.2515,100.456
2609.2158,100.466
2610.1799,100.469
2611.1443,100.465
2612.1084,100.459
2613.0728,100.456
2614.0369,100.458
2615.0012,100.463
2615.9653,100.467
2616.9297,100.47
2617.8938,100.473
2618.8582,100.479
2619.8223,100.487
2620.7866,100.493
2621.7507,100.494
2622.7151,100.491
2623.6792,100.489
2624.6436,100.492
2625.6077,100.5
2626.5720,100.508
2627.5361,100.512
2628.5005,100.51
2629.4646,100.506
2630.4290,100.504
2631.3931,100.508
2632.3574,100.515
2633.3215,100.519
2634.2859,100.518
2635.2500,100.513
2636.2144,100.51
2637.1785,100.509
2638.1428,100.51
2639.1069,100.511
2640.0713,100.512
2641.0354,100.514
2641.9998,100.519
2642.9639,100.527
2643.9282,100.534
2644.8923,100.535
2645.8567,100.531
2646.8208,100.527
2647.7852,100.528
2648.7493,100.533
2649.7136,100.539
2650.6777,100.539
2651.6421,100.535
2652.6062,100.53
2653.5706,100.533
2654.5347,100.545
2655.4990,100.561
2656.4631,100.573
2657.4275,100.576
2658.3916,100.572
2659.3560,100.567
2660.3201,100.565
2661.2844,100.567
2662.2485,100.569
2663.2129,100.569
2664.1770,100.57
2665.1414,100.574
2666.1055,100.582
2667.0698,100.592
2668.0339,100.597
2668.9983,100.597
2669.9624,100.593
2670.9268,100.591
2671.8909,100.595
2672.8552,100.603
2673.8193,100.61
2674.7837,100.613
2675.7478,100.612
2676.7122,100.609
2677.6763,100.607
2678.6406,100.604
2679.6047,100.597
2680.5691,100.583
2681.5332,100.565
2682.4976,100.548
2683.4617,100.538
2684.4260,100.532
2685.3901,100.528
2686.3545,100.521
2687.3186,100.511
2688.2830,100.501
2689.2471,100.494
2690.2114,100.493
2691.1755,100.495
2692.1399,100.498
2693.1040,100.5
2694.0684,100.5
2695.0325,100.499
2695.9968,100.495
2696.9609,100.486
2697.9253,100.473
2698.8894,100.457
2699.8538,100.443
2700.8179,100.432
2701.7822,100.426
2702.7463,100.42
2703.7107,100.412
2704.6748,100.399
2705.6392,100.384
2706.6033,100.367
2707.5676,100.352
2708.5317,100.338
2709.4961,100.326
2710.4602,100.315
2711.4246,100.306
2712.3887,100.299
2713.3530,100.289
2714.3171,100.274
2715.2815,100.252
2716.2456,100.226
2717.2100,100.201
2718.1741,100.184
2719.1384,100.176
2720.1025,100.174
2721.0669,100.174
2722.0310,100.172
2722.9954,100.168
2723.9595,100.163
2724.9238,100.158
2725.8879,100.153
2726.8523,100.145
2727.8164,100.134
2728.7808,100.122
2729.7449,100.112
2730.7092,100.105
2731.6733,100.101
2732.6377,100.097
2733.6018,100.091
2734.5662,100.083
2735.5303,100.073
2736.4946,100.063
2737.4587,100.053
2738.4231,100.043
2739.3872,100.033
2740.3516,100.027
2741.3157,100.027
2742.2800,100.032
2743.2441,100.042
2744.2085,100.051
2745.1726,100.057
2746.1370,100.058
2747.1011,100.055
2748.0654,100.051
2749.0295,100.047
2749.9939,100.044
2750.9580,100.042
2751.9224,100.042
2752.8865,100.044
2753.8508,100.048
2754.8149,100.05
2755.7793,100.049
2756.7434,100.041
2757.7078,100.028
2758.6719,100.012
2759.6362,99.9973
2760.6003,99.9861
2761.5647,99.9789
2762.5288,99.9746
2763.4932,99.9714
2764.4573,99.9684
2765.4216,99.9655
2766.3857,99.9632
2767.3501,99.9626
2768.3142,99.9639
2769.2786,99.9667
2770.2427,99.9691
2771.2070,99.9677
2772.1711,99.9589
2773.1355,99.941
2774.0996,99.9157
2775.0640,99.8875
2776.0281,99.8618
2776.9924,99.8416
2777.9565,99.8253
2778.9209,99.8082
2779.8850,99.7848
2780.8494,99.7529
2781.8135,99.715
2782.7778,99.6771
2783.7419,99.6453
2784.7063,99.6227
2785.6704,99.6075
2786.6348,99.5938
2787.5989,99.5749
2788.5632,99.5457
2789.5273,99.5059
2790.4917,99.4573
2791.4558,99.4057
2792.4202,99.3569
2793.3843,99.3138
2794.3486,99.2755
2795.3127,99.2373
2796.2771,99.1935
2797.2412,99.1405
2798.2056,99.0783
2799.1697,99.0107
2800.1340,98.9429
2801.0981,98.879
2802.0625,98.8205
2803.0266,98.7667
2803.9910,98.7157
2804.9551,98.6657
2805.9194,98.6153
2806.8835,98.563
2807.8479,98.5064
2808.8120,98.4428
2809.7764,98.3704
2810.7405,98.289
2811.7048,98.2003
2812.6689,98.1073
2813.6333,98.012
2814.5974,97.9148
2815.5618,97.8141
2816.5259,97.7069
2817.4902,97.5903
2818.4543,97.4616
2819.4187,97.3193
2820.3828,97.1625
2821.3472,96.9912
2822.3113,96.8058
2823.2756,96.607
2824.2397,96.3953
2825.2041,96.1709
2826.1682,95.9331
2827.1326,95.6815
2828.0967,95.4165
2829.0610,95.1399
2830.0251,94.8549
2830.9895,94.5653
2831.9536,94.2746
2832.9180,93.9857
2833.8821,93.7015
2834.8464,93.4249
2835.8105,93.1594
2836.7749,92.9085
2837.7390,92.6759
2838.7034,92.4645
2839.6675,92.2766
2840.6318,92.1122
2841.5959,91.9682
2842.5603,91.8369
2843.5244,91.7075
2844.4888,91.5698
2845.4529,91.42
2846.4172,91.2654
2847.3813,91.1237
2848.3457,91.0165
2849.3098,90.9594
2850.2742,90.9544
2851.2383,90.9881
2852.2026,91.0377
2853.1667,91.0804
2854.1311,91.1008
2855.0952,91.0937
2856.0596,91.0599
2857.0237,91.002
2857.9880,90.9211
2858.9521,90.8164
2859.9165,90.6877
2860.8806,90.5367
2861.8450,90.3674
2862.8091,90.1852
2863.7734,89.9956
2864.7375,89.804
2865.7019,89.6161
2866.6660,89.4367
2867.6304,89.2693
2868.5945,89.1156
2869.5588,88.9751
2870.5229,88.8466
2871.4873,88.7281
2872.4514,88.6169
2873.4158,88.5094
2874.3799,88.4006
2875.3442,88.2853
2876.3083,88.1591
2877.2727,88.0198
2878.2368,87.867
2879.2012,87.7025
2880.1653,87.53
2881.1296,87.3559
2882.0938,87.1886
2883.0581,87.0379
2884.0222,86.9112
2884.9866,86.8105
2885.9507,86.7299
2886.9150,86.657
2887.8792,86.5774
2888.8435,86.4811
2889.8076,86.3673
2890.7720,86.2451
2891.7361,86.1283
2892.7004,86.0255
2893.6646,85.9319
2894.6289,85.8275
2895.5930,85.6856
2896.5574,85.4892
2897.5215,85.2458
2898.4858,84.9903
2899.4500,84.774
2900.4143,84.6415
2901.3784,84.6106
2902.3428,84.6651
2903.3069,84.764
2904.2712,84.8616
2905.2354,84.9258
2906.1997,84.9456
2907.1638,84.9266
2908.1282,84.8808
2909.0923,84.8181
2910.0566,84.743
2911.0208,84.6562
2911.9851,84.5576
2912.9492,84.4478
2913.9136,84.3285
2914.8777,84.2028
2915.8420,84.076
2916.8062,83.9557
2917.7705,83.8509
2918.7346,83.7685
2919.6990,83.7107
2920.6631,83.6737
2921.6274,83.6495
2922.5916,83.6289
2923.5559,83.6045
2924.5200,83.572
2925.4844,83.5298
2926.4485,83.4783
2927.4128,83.4196
2928.3770,83.357
2929.3413,83.2956
2930.3054,83.2411
2931.2698,83.1987
2932.2339,83.1723
2933.1982,83.165
2934.1624,83.179
2935.1267,83.2166
2936.0908,83.2797
2937.0552,83.3691
2938.0193,83.484
2938.9836,83.6219
2939.9478,83.7807
2940.9121,83.9597
2941.8762,84.1587
2942.8406,84.3762
2943.8047,84.6063
2944.7690,84.8377
2945.7332,85.0554
2946.6975,85.2452
2947.6616,85.3972
2948.6260,85.508
2949.5901,85.5786
2950.5544,85.6127
2951.5186,85.6138
2952.4829,85.5845
2953.4470,85.5272
2954.4114,85.4447
2955.3755,85.3405
2956.3398,85.218
2957.3040,85.0802
2958.2683,84.9286
2959.2324,84.7629
2960.1968,84.5813
2961.1609,84.3809
2962.1252,84.1595
2963.0894,83.9181
2964.0537,83.662
2965.0178,83.4004
2965.9822,83.1449
2966.9463,82.908
2967.9106,82.7023
2968.8748,82.5404
2969.8391,82.4349
2970.8032,82.3967
2971.7676,82.432
2972.7317,82.5398
2973.6960,82.712
2974.6602,82.9365
2975.6245,83.2016
2976.5886,83.4991
2977.5530,83.8244
2978.5171,84.1747
2979.4814,84.5447
2980.4456,84.9238
2981.4099,85.2949
2982.3740,85.6372
2983.3384,85.9331
2984.3025,86.1785
2985.2668,86.3909
2986.2310,86.6102
2987.1953,86.886
2988.1594,87.2566
2989.1238,87.7282
2990.0879,88.2678
2991.0522,88.8153
2992.0164,89.3099
2992.9807,89.7152
2993.9448,90.0312
2994.9092,90.2871
2995.8733,90.5217
2996.8376,90.7637
2997.8018,91.0228
2998.7661,91.2934
2999.7302,91.5649
3000.6946,91.8313
3001.6587,92.0943
3002.6230,92.3605
3003.5872,92.6372
3004.5515,92.9275
3005.5156,93.2294
3006.4800,93.5363
3007.4441,93.8398
3008.4084,94.1335
3009.3726,94.4154
3010.3369,94.6889
3011.3010,94.9611
3012.2654,95.2384
3013.2295,95.5224
3014.1938,95.8078
3015.1580,96.0853
3016.1223,96.3458
3017.0864,96.5845
3018.0508,96.8025
3019.0149,97.0049
3019.9792,97.1975
3020.9434,97.3848
3021.9077,97.5691
3022.8718,97.7507
3023.8362,97.928
3024.8003,98.098
3025.7646,98.2568
3026.7288,98.4005
3027.6931,98.5285
3028.6572,98.6443
3029.6216,98.7553
3030.5857,98.8694
3031.5500,98.9904
3032.5142,99.1161
3033.4785,99.2396
3034.4426,99.3538
3035.4070,99.4557
3036.3711,99.5472
3037.3354,99.6323
3038.2996,99.713
3039.2639,99.7874
3040.2280,99.85
3041.1924,99.8954
3042.1565,99.922
3043.1208,99.9331
3044.0850,99.9361
3045.0493,99.9397
3046.0134,99.9504
3046.9778,99.9703
3047.9419,99.9957
3048.9063,100.019
3049.8704,100.031
3050.8347,100.005
3051.7988,99.9558
3052.7632,99.8939
3053.7273,99.8286
3054.6917,99.7693
3055.6558,99.7223
3056.6201,99.6882
3057.5842,99.6623
3058.5486,99.6368
3059.5127,99.6038
3060.4771,99.5577
3061.4412,99.498
3062.4055,99.4299
3063.3696,99.3626
3064.3340,99.306
3065.2981,99.2661
3066.2625,99.2417
3067.2266,99.2252
3068.1909,99.2077
3069.1550,99.1834
3070.1194,99.1526
3071.0835,99.1193
3072.0479,99.0872
3073.0120,99.0562
3073.9763,99.0221
3074.9404,98.9806
3075.9048,98.9312
3076.8689,98.8793
3077.8333,98.8336
3078.7974,98.8014
3079.7617,98.7839
3080.7258,98.7757
3081.6902,98.7677
3082.6543,98.7528
3083.6187,98.7285
3084.5828,98.6982
3085.5471,98.6672
3086.5112,98.6396
3087.4756,98.6152
3088.4397,98.5899
3089.4041,98.5574
3090.3682,98.5135
3091.3325,98.4577
3092.2966,98.3938
3093.2610,98.3275
3094.2251,98.2638
3095.1895,98.2047
3096.1536,98.1495
3097.1179,98.0962
3098.0820,98.0442
3099.0464,97.9953
3100.0105,97.9524
3100.9749,97.9179
3101.9390,97.8915
3102.9033,97.8698
3103.8674,97.8478
3104.8318,97.8208
3105.7959,97.7856
3106.7603,97.7412
3107.7244,97.6879
3108.6887,97.6273
3109.6528,97.5615
3110.6172,97.4932
3111.5813,97.4251
3112.5457,97.3589
3113.5098,97.296
3114.4741,97.2365
3115.4382,97.1802
3116.4026,97.127
3117.3667,97.0773
3118.3311,97.0317
3119.2952,96.99
3120.2595,96.9511
3121.2236,96.9129
3122.1880,96.8734
3123.1521,96.8321
3124.1165,96.7899
3125.0806,96.7487
3126.0449,96.7089
3127.0090,96.6683
3127.9734,96.6229
3128.9375,96.5694
3129.9019,96.5082
3130.8660,96.4449
3131.8303,96.3881
3132.7944,96.3452
3133.7588,96.3181
3134.7229,96.3018
3135.6873,96.2868
3136.6514,96.2633
3137.6157,96.2259
3138.5798,96.1747
3139.5442,96.1144
3140.5083,96.0513
3141.4727,95.9906
3142.4368,95.9344
3143.4011,95.8824
3144.3652,95.8325
3145.3296,95.7832
3146.2937,95.7343
3147.2581,95.6872
3148.2222,95.6436
3149.1865,95.6038
3150.1506,95.5655
3151.1150,95.5243
3152.0791,95.4757
3153.0435,95.4173
3154.0076,95.3504
3154.9719,95.2795
3155.9360,95.2099
3156.9004,95.1457
3157.8645,95.0881
3158.8289,95.0359
3159.7930,94.9865
3160.7573,94.9378
3161.7214,94.8882
3162.6858,94.8368
3163.6499,94.7831
3164.6143,94.7264
3165.5784,94.6671
3166.5427,94.607
3167.5068,94.5491
3168.4712,94.4958
3169.4353,94.5043
3170.3997,94.4552
3171.3638,94.3997
3172.3281,94.3329
3173.2922,94.2539
3174.2566,94.1677
3175.2207,94.0827
3176.1851,94.0074
3177.1492,93.9469
3178.1135,93.9005
3179.0776,93.8631
3180.0420,93.8284
3181.0061,93.7913
3181.9705,93.7498
3182.9346,93.7046
3183.8989,93.6569
3184.8630,93.6074
3185.8274,93.5552
3186.7915,93.4987
3187.7559,93.4373
3188.7200,93.3729
3189.6843,93.3094
3190.6484,93.2507
3191.6128,93.1976
3192.5769,93.1472
3193.5413,93.0936
3194.5054,93.0322
3195.4697,92.9636
3196.4338,92.8936
3197.3982,92.8306
3198.3623,92.7803
3199.3267,92.7422
3200.2908,92.7104
3201.2551,92.6772
3202.2192,92.6376
3203.1836,92.5904
3204.1477,92.5372
3205.1121,92.4804
3206.0762,92.4217
3207.0405,92.3627
3208.0046,92.3051
3208.9690,92.2508
3209.9331,92.2006
3210.8975,92.1538
3211.8616,92.1084
3212.8259,92.0628
3213.7900,92.0174
3214.7544,91.9736
3215.7185,91.9322
3216.6829,91.8923
3217.6470,91.8517
3218.6113,91.8086
3219.5754,91.7633
3220.5398,91.7179
3221.5039,91.6747
3222.4683,91.6341
3223.4324,91.5949
3224.3967,91.5558
3225.3608,91.5171
3226.3252,91.4815
3227.2893,91.452
3228.2537,91.4298
3229.2178,91.4121
3230.1821,91.3934
3231.1462,91.3679
3232.1106,91.3318
3233.0747,91.2854
3234.0391,91.2318
3235.0032,91.1758
3235.9675,91.1216
3236.9316,91.0724
3237.8960,91.0293
3238.8601,90.9914
3239.8245,90.9569
3240.7886,90.9237
3241.7529,90.8908
3242.7170,90.8589
3243.6814,90.8291
3244.6455,90.8018
3245.6099,90.7751
3246.5740,90.7454
3247.5383,90.7095
3248.5024,90.6671
3249.4668,90.6211
3250.4309,90.5763
3251.3953,90.5364
3252.3594,90.5021
3253.3237,90.4712
3254.2878,90.4402
3255.2522,90.4071
3256.2163,90.3717
3257.1807,90.3355
3258.1448,90.2993
3259.1091,90.2621
3260.0732,90.2223
3261.0376,90.1789
3262.0017,90.1339
3262.9661,90.0916
3263.9302,90.0572
3264.8945,90.0329
3265.8586,90.0167
3266.8230,90.0024
3267.7871,89.9818
3268.7515,89.9485
3269.7156,89.9009
3270.6799,89.8426
3271.6440,89.7813
3272.6084,89.7255
3273.5725,89.6818
3274.5369,89.652
3275.5010,89.6331
3276.4653,89.6193
3277.4294,89.6037
3278.3938,89.5817
3279.3579,89.5522
3280.3223,89.5179
3281.2864,89.4837
3282.2507,89.4538
3283.2148,89.4294
3284.1792,89.4076
3285.1433,89.3838
3286.1077,89.3544
3287.0718,89.3199
3288.0361,89.2847
3289.0002,89.2541
3289.9646,89.2313
3290.9287,89.2146
3291.8931,89.1994
3292.8572,89.1809
3293.8215,89.1571
3294.7856,89.1287
3295.7500,89.0974
3296.7141,89.0642
3297.6785,89.0297
3298.6426,88.9955
3299.6069,88.9658
3300.5710,88.9455
3301.5354,88.9366
3302.4995,88.9356
3303.4639,88.9337
3304.4280,88.921
3305.3923,88.8924
3306.3564,88.8503
3307.3208,88.8029
3308.2849,88.7595
3309.2493,88.7258
3310.2134,88.7018
3311.1777,88.6842
3312.1418,88.6692
3313.1062,88.6547
3314.0703,88.64
3315.0347,88.6244
3315.9988,88.6072
3316.9631,88.588
3317.9272,88.5676
3318.8916,88.5481
3319.8557,88.5315
3320.8201,88.5175
3321.7842,88.5033
3322.7485,88.485
3323.7126,88.46
3324.6770,88.4296
3325.6411,88.3978
3326.6055,88.3697
3327.5696,88.3479
3328.5339,88.3312
3329.4980,88.3158
3330.4624,88.2977
3331.4265,88.2755
3332.3909,88.2515
3333.3550,88.2305
3334.3193,88.2171
3335.2834,88.2127
3336.2478,88.2139
3337.2119,88.2141
3338.1763,88.2067
3339.1404,88.1885
3340.1047,88.1614
3341.0688,88.1309
3342.0332,88.1025
3342.9973,88.0798
3343.9617,88.063
3344.9258,88.0505
3345.8901,88.0411
3346.8542,88.0351
3347.8186,88.033
3348.7827,88.0339
3349.7471,88.0339
3350.7112,88.0277
3351.6755,88.0115
3352.6396,87.9856
3353.6040,87.9554
3354.5681,87.9287
3355.5325,87.912
3356.4966,87.9075
3357.4609,87.9124
3358.4250,87.9207
3359.3894,87.9257
3360.3535,87.9227
3361.3179,87.9098
3362.2820,87.8892
3363.2463,87.8659
3364.2104,87.8469
3365.1748,87.8384
3366.1389,87.8433
3367.1033,87.86
3368.0674,87.8828
3369.0317,87.9052
3369.9958,87.9227
3370.9602,87.9338
3371.9243,87.9392
3372.8887,87.9399
3373.8528,87.9361
3374.8171,87.9282
3375.7813,87.9179
3376.7456,87.9087
3377.7097,87.9036
3378.6741,87.9034
3379.6382,87.9052
3380.6025,87.9042
3381.5667,87.8972
3382.5310,87.8857
3383.4951,87.8755
3384.4595,87.8732
3385.4236,87.8815
3386.3879,87.8979
3387.3521,87.916
3388.3164,87.9301
3389.2805,87.9376
3390.2449,87.9392
3391.2090,87.9371
3392.1733,87.9336
3393.1375,87.9314
3394.1018,87.9348
3395.0659,87.9489
3396.0303,87.9768
3396.9944,88.0153
3397.9587,88.0541
3398.9229,88.0805
3399.8872,88.0873
3400.8513,88.0781
3401.8157,88.0656
3402.7798,88.0637
3403.7441,88.0787
3404.7083,88.1069
3405.6726,88.1378
3406.6367,88.1621
3407.6011,88.177
3408.5652,88.1861
3409.5295,88.196
3410.4937,88.2112
3411.4580,88.2327
3412.4221,88.2582
3413.3865,88.2833
3414.3506,88.3034
3415.3149,88.3142
3416.2791,88.3137
3417.2434,88.3049
3418.2075,88.2967
3419.1719,88.3013
3420.1360,88.3275
3421.1003,88.3752
3422.0645,88.4345
3423.0288,88.493
3423.9929,88.5431
3424.9573,88.5858
3425.9214,88.6274
3426.8857,88.6733
3427.8499,88.7237
3428.8142,88.774
3429.7783,88.8185
3430.7427,88.855
3431.7068,88.886
3432.6711,88.9162
3433.6353,88.9493
3434.5996,88.9857
3435.5637,89.0226
3436.5281,89.0561
3437.4922,89.0823
3438.4565,89.0983
3439.4207,89.1023
3440.3850,89.0951
3441.3491,89.0807
3442.3135,89.0663
3443.2776,89.0606
3444.2419,89.0711
3445.2061,89.1023
3446.1704,89.1546
3447.1345,89.2239
3448.0989,89.3033
3449.0630,89.3848
3450.0273,89.4618
3450.9915,89.5294
3451.9558,89.5843
3452.9199,89.6248
3453.8843,89.6523
3454.8484,89.6701
3455.8127,89.6825
3456.7769,89.6927
3457.7412,89.7028
3458.7053,89.7149
3459.6697,89.7325
3460.6338,89.759
3461.5981,89.7958
3462.5623,89.8406
3463.5266,89.8891
3464.4907,89.9382
3465.4551,89.9882
3466.4192,90.0404
3467.3835,90.0935
3468.3477,90.1416
3469.3120,90.1773
3470.2761,90.1978
3471.2405,90.2094
3472.2046,90.2252
3473.1689,90.2578
3474.1331,90.3096
3475.0974,90.3702
3476.0615,90.4222
3477.0259,90.4523
3477.9900,90.4593
3478.9543,90.4545
3479.9185,90.4549
3480.8828,90.4744
3481.8469,90.5158
3482.8113,90.5712
3483.7754,90.6285
3484.7397,90.6795
3485.7039,90.7228
3486.6682,90.7634
3487.6323,90.8081
3488.5967,90.8615
3489.5608,90.922
3490.5251,90.9832
3491.4893,91.038
3492.4536,91.0842
3493.4177,91.1259
3494.3821,91.1712
3495.3462,91.224
3496.3105,91.278
3497.2747,91.3182
3498.2390,91.3316
3499.2031,91.3184
3500.1675,91.2971
3501.1316,91.2988
3502.0959,91.3506
3503.0601,91.4549
3504.0244,91.5848
3504.9885,91.7038
3505.9529,91.7913
3506.9170,91.8506
3507.8813,91.9008
3508.8455,91.9629
3509.8098,92.0483
3510.7739,92.153
3511.7383,92.2637
3512.7024,92.3688
3513.6667,92.4634
3514.6309,92.5472
3515.5952,92.6199
3516.5593,92.6796
3517.5237,92.7244
3518.4878,92.7553
3519.4521,92.7766
3520.4163,92.7955
3521.3806,92.8196
3522.3447,92.8558
3523.3091,92.9083
3524.2732,92.9785
3525.2375,93.0669
3526.2017,93.1744
3527.1660,93.302
3528.1301,93.4463
3529.0945,93.5971
3530.0586,93.7398
3531.0229,93.8637
3531.9871,93.9678
3532.9514,94.061
3533.9155,94.1574
3534.8799,94.2703
3535.8440,94.4038
3536.8083,94.5476
3537.7725,94.6795
3538.7368,94.7775
3539.7009,94.8309
3540.6653,94.8451
3541.6294,94.8382
3542.5938,94.838
3543.5579,94.8773
3544.5222,94.9808
3545.4863,95.1461
3546.4507,95.3393
3547.4148,95.518
3548.3792,95.6619
3549.3433,95.7786
3550.3076,95.8904
3551.2717,96.017
3552.2361,96.1647
3553.2002,96.3234
3554.1646,96.4743
3555.1287,96.6051
3556.0930,96.7155
3557.0571,96.8106
3558.0215,96.8922
3558.9856,96.9553
3559.9500,96.9921
3560.9141,96.9992
3561.8784,96.9814
3562.8425,96.9499
3563.8069,96.9223
3564.7710,96.934
3565.7354,97.047
3566.6995,97.3005
3567.6638,97.6322
3568.6279,97.9159
3569.5923,98.0861
3570.5564,98.1682
3571.5208,98.2181
3572.4849,98.2734
3573.4492,98.3432
3574.4133,98.4207
3575.3777,98.4967
3576.3418,98.5673
3577.3062,98.6321
3578.2703,98.6905
3579.2346,98.7381
3580.1987,98.7707
3581.1631,98.7902
3582.1272,98.8067
3583.0916,98.8318
3584.0557,98.8702
3585.0200,98.9237
3585.9841,99.004
3586.9485,99.1214
3587.9126,99.2429
3588.8770,99.3034
3589.8411,99.2578
3590.8054,99.1569
3591.7695,99.0537
3592.7339,98.9801
3593.6980,98.9445
3594.6624,98.9378
3595.6265,98.94
3596.5908,98.936
3597.5549,98.9302
3598.5193,98.9448
3599.4834,98.9999
3600.4478,99.0942
3601.4119,99.2022
3602.3762,99.2959
3603.3403,99.3662
3604.3047,99.4223
3605.2688,99.4794
3606.2332,99.5509
3607.1973,99.6433
3608.1616,99.7463
3609.1257,99.8279
3610.0901,99.8546
3611.0542,99.8152
3612.0186,99.7262
3612.9829,99.6191
3613.9470,99.5245
3614.9114,99.462
3615.8755,99.4405
3616.8398,99.4641
3617.8040,99.5365
3618.7683,99.6477
3619.7324,99.75
3620.6968,99.7735
3621.6609,99.6942
3622.6252,99.562
3623.5894,99.4578
3624.5537,99.4348
3625.5178,99.4918
3626.4822,99.5895
3627.4463,99.7039
3628.4106,99.8405
3629.3748,99.9548
3630.3391,99.9623
3631.3032,99.8641
3632.2676,99.7445
3633.2317,99.6777
3634.1960,99.6814
3635.1602,99.7269
3636.1245,99.7727
3637.0886,99.7926
3638.0530,99.783
3639.0171,99.7519
3639.9814,99.7058
3640.9456,99.6476
3641.9099,99.5836
3642.8740,99.5282
3643.8384,99.4928
3644.8025,99.4636
3645.7668,99.3894
3646.7310,99.2263
3647.6953,99.0663
3648.6594,99.143
3649.6238,99.4596
3650.5879,99.7143
3651.5522,99.7534
3652.5164,99.6592
3653.4807,99.5502
3654.4448,99.4797
3655.4092,99.4418
3656.3733,99.4082
3657.3376,99.3559
3658.3018,99.2843
3659.2661,99.2166
3660.2302,99.1776
3661.1946,99.1703
3662.1587,99.1756
3663.1230,99.1748
3664.0872,99.17
3665.0515,99.1778
3666.0156,99.2032
3666.9800,99.221
3667.9441,99.1972
3668.9084,99.1343
3669.8726,99.0701
3670.8369,99.0266
3671.8010,98.9978
3672.7654,98.9709
3673.7295,98.9396
3674.6938,98.929
3675.6580,98.9846
3676.6223,99.0877
3677.5864,99.1608
3678.5508,99.1741
3679.5149,99.1543
3680.4792,99.1261
3681.4434,99.0912
3682.4077,99.0483
3683.3718,99.0129
3684.3362,99.0077
3685.3003,99.0329
3686.2646,99.0464
3687.2288,98.9917
3688.1931,98.8751
3689.1572,98.7906
3690.1216,98.7988
3691.0857,98.8549
3692.0500,98.9018
3693.0142,98.9308
3693.9785,98.9562
3694.9426,98.9892
3695.9070,99.0355
3696.8711,99.0994
3697.8354,99.1831
3698.7996,99.2823
3699.7639,99.3857
3700.7280,99.4796
3701.6924,99.5492
3702.6565,99.5788
3703.6208,99.563
3704.5850,99.5177
3705.5493,99.4702
3706.5134,99.4368
3707.4778,99.4121
3708.4419,99.391
3709.4063,99.4149
3710.3704,99.5708
3711.3347,99.8663
3712.2988,100.155
3713.2632,100.292
3714.2273,100.266
3715.1917,100.149
3716.1558,100.01
3717.1201,99.8769
3718.0842,99.7436
3719.0486,99.6006
3720.0127,99.4518
3720.9771,99.3167
3721.9412,99.217
3722.9055,99.1638
3723.8696,99.1529
3724.8340,99.1668
3725.7981,99.183
3726.7625,99.1876
3727.7266,99.1857
3728.6909,99.1919
3729.6550,99.2094
3730.6194,99.2164
3731.5835,99.1759
3732.5479,99.0796
3733.5120,99.0197
3734.4763,99.0782
3735.4404,99.263
3736.4048,99.43
3737.3689,99.472
3738.3333,99.439
3739.2974,99.4607
3740.2617,99.6321
3741.2258,99.953
3742.1902,100.319
3743.1543,100.569
3744.1187,100.585
3745.0828,100.375
3746.0471,100.048
3747.0112,99.7387
3747.9756,99.5356
3748.9397,99.4761
3749.9041,99.5776
3750.8682,99.8007
3751.8325,99.9857
3752.7966,99.9905
3753.7610,99.8431
3754.7251,99.6626
3755.6895,99.5376
3756.6536,99.4953
3757.6179,99.5261
3758.5820,99.6047
3759.5464,99.6932
3760.5105,99.7562
3761.4749,99.7835
3762.4390,99.7886
3763.4033,99.7881
3764.3674,99.7888
3765.3318,99.7898
3766.2959,99.7903
3767.2603,99.7938
3768.2244,99.8088
3769.1887,99.8415
3770.1528,99.8855
3771.1172,99.9201
3772.0813,99.9271
3773.0457,99.9089
3774.0098,99.8836
3774.9741,99.8661
3775.9382,99.8559
3776.9026,99.8445
3777.8667,99.8301
3778.8311,99.8169
3779.7952,99.7996
3780.7595,99.7656
3781.7236,99.7131
3782.6880,99.6578
3783.6521,99.6236
3784.6165,99.6292
3785.5806,99.677
3786.5449,99.7508
3787.5090,99.8256
3788.4734,99.8829
3789.4375,99.919
3790.4019,99.9398
3791.3660,99.9485
3792.3303,99.9363
3793.2944,99.8868
3794.2588,99.7922
3795.2229,99.67
3796.1873,99.5585
3797.1514,99.4932
3798.1157,99.4816
3799.0798,99.503
3800.0442,99.5324
3801.0083,99.5603
3801.9727,99.5873
3802.9368,99.6179
3803.9011,99.671
3804.8652,99.7672
3805.8296,99.8993
3806.7937,100.02
3807.7581,100.065
3808.7222,100.008
3809.6865,99.8948
3810.6506,99.8129
3811.6150,99.8201
3812.5791,99.9039
3813.5435,99.9898
3814.5076,99.9966
3815.4719,99.8978
3816.4360,99.7331
3817.4004,99.5699
3818.3645,99.4645
3819.3289,99.4471
3820.2930,99.5111
3821.2573,99.5986
3822.2214,99.6282
3823.1858,99.5707
3824.1499,99.4724
3825.1143,99.4041
3826.0784,99.4075
3827.0427,99.4792
3828.0068,99.5829
3828.9712,99.6747
3829.9353,99.726
3830.8997,99.7331
3831.8638,99.7118
3832.8281,99.6812
3833.7922,99.6485
3834.7566,99.6019
3835.7207,99.5221
3836.6851,99.4086
3837.6492,99.2979
3838.6135,99.2393
3839.5776,99.2526
3840.5420,99.3242
3841.5061,99.4314
3842.4705,99.5487
3843.4346,99.6395
3844.3989,99.6643
3845.3630,99.609
3846.3274,99.5078
3847.2915,99.4346
3848.2559,99.4673
3849.2200,99.645
3850.1843,99.938
3851.1484,100.257
3852.1128,100.528
3853.0769,100.733
3854.0413,100.782
3855.0054,100.572
3855.9697,100.192
3856.9338,99.828
3857.8982,99.6022
3858.8623,99.5309
3859.8267,99.5545
3860.7908,99.5869
3861.7551,99.5733
3862.7192,99.5263
3863.6836,99.5012
3864.6477,99.5338
3865.6121,99.615
3866.5762,99.7104
3867.5405,99.7805
3868.5046,99.7966
3869.4690,99.7592
3870.4331,99.7003
3871.3975,99.6565
3872.3616,99.6394
3873.3259,99.6398
3874.2900,99.6496
3875.2544,99.6698
3876.2185,99.7004
3877.1829,99.7299
3878.1470,99.7371
3879.1113,99.7103
3880.0754,99.665
3881.0398,99.6393
3882.0039,99.6679
3882.9683,99.7586
3883.9324,99.8859
3884.8967,99.9992
3885.8608,100.049
3886.8252,100.018
3887.7893,99.9302
3888.7537,99.8281
3889.7178,99.7457
3890.6821,99.7005
3891.6462,99.6909
3892.6106,99.6939
3893.5747,99.6857
3894.5391,99.6722
3895.5032,99.6778
3896.4675,99.7112
3897.4316,99.7535
3898.3960,99.7784
3899.3601,99.7757
3900.3245,99.7541
3901.2886,99.7288
3902.2529,99.7143
3903.2170,99.7212
3904.1814,99.7449
3905.1455,99.7667
3906.1099,99.7749
3907.0740,99.7754
3908.0383,99.7809
3909.0024,99.795
3909.9668,99.8103
3910.9309,99.8179
3911.8953,99.8161
3912.8594,99.8111
3913.8237,99.8101
3914.7878,99.815
3915.7522,99.8236
3916.7163,99.8319
3917.6807,99.8322
3918.6448,99.8126
3919.6091,99.7669
3920.5732,99.7023
3921.5376,99.6359
3922.5017,99.5845
3923.4661,99.5582
3924.4302,99.5557
3925.3945,99.5634
3926.3586,99.5652
3927.3230,99.5549
3928.2871,99.5372
3929.2515,99.5228
3930.2156,99.5258
3931.1799,99.5574
3932.1440,99.6152
3933.1084,99.6795
3934.0725,99.729
3935.0369,99.7556
3936.0010,99.7642
3936.9653,99.7617
3937.9294,99.751
3938.8938,99.7307
3939.8579,99.7021
3940.8223,99.6727
3941.7864,99.6543
3942.7507,99.6523
3943.7148,99.6594
3944.6792,99.6614
3945.6433,99.6473
3946.6077,99.6162
3947.5718,99.5774
3948.5361,99.5471
3949.5002,99.5377
3950.4646,99.5506
3951.4287,99.5769
3952.3931,99.606
3953.3572,99.6313
3954.3215,99.649
3955.2856,99.6574
3956.2500,99.6555
3957.2141,99.645
3958.1785,99.6303
3959.1426,99.6191
3960.1069,99.6192
3961.0710,99.6353
3962.0354,99.6652
3962.9995,99.6998
3963.9639,99.7278
3964.9280,99.7408
3965.8923,99.736
3966.8564,99.7158
3967.8208,99.6855
3968.7849,99.6514
3969.7493,99.6197
3970.7134,99.5964
3971.6777,99.5862
3972.6418,99.5917
3973.6062,99.6113
3974.5703,99.6395
3975.5347,99.6679
3976.4988,99.6895
3977.4631,99.7009
3978.4272,99.7037
3979.3916,99.702
3980.3557,99.6994
3981.3201,99.6979
3982.2842,99.6973
3983.2485,99.6963
3984.2126,99.6947
3985.1770,99.6935
3986.1411,99.6939
3987.1055,99.6956
3988.0696,99.6957
3989.0339,99.6892
3989.9980,99.6729
3990.9624,99.6488
3991.9265,99.6246
3992.8909,99.6108
3993.8550,99.6142
3994.8193,99.6334
3995.7834,99.6582
3996.7478,99.6757
3997.7119,99.6769
3998.6763,99.6619
3999.6404,99.6396
4000.6047,99.4163

##### Extended Information
[Comments]
Sample name
Comment
User
Division
Company,HANKYONG

[Detailed Information]
Creation date,4/24/2024 12:14 PM

Data array type,Linear data array
Horizontal axis,Wavenumber [cm-1]
Vertical axis,%T
Start,649.893 cm-1
End,4000.6 cm-1
Data interval,0.964233 cm-1
Data points,3476    

[Measurement Information]
Model Name,FT/IR-4700typeA
Serial Number,D056761788

Accessory,ATR PRO ONE
Accessory S/N,C174761809
Incident angle,45 deg

Measurement Date,4/24/2024 12:13 PM

Light Source,Standard
Detector,TGS
Accumulation,32
Resolution,4 cm-1
Zero Filling,On
Apodization,Cosine
Gain,Auto (4)
Aperture,Auto (7.1 mm)
Scanning Speed,Auto (2 mm/sec)
Filter,Auto (30000 Hz)

