TITLE,
DATA TYPE,INFRARED SPECTRUM
ORIGIN,JASCO
OWNER,
DATE,24/04/24
TIME,15:46:55
SPECTROMETER/DATA SYSTEM,
LOCALE,1033
RESOLUTION,
DELTAX,0.964233
XUNITS,1/CM
YUNITS,TRANSMITTANCE
FIRSTX,  649.8934
LASTX, 4000.6047
NPOINTS,    3476
FIRSTY,    98.84380
MAXY,   101.76616
MINY,    78.95740
XYDATA
649.8934,98.8438
650.8576,98.9207
651.8218,98.9749
652.7861,99.0111
653.7503,99.0318
654.7145,99.0421
655.6788,99.0479
656.6430,99.053
657.6072,99.0568
658.5715,99.0528
659.5357,99.0326
660.4999,98.9953
661.4642,98.9565
662.4284,98.9473
663.3926,99.0046
664.3569,99.1654
665.3211,99.4637
666.2853,99.9123
667.2496,100.436
668.2138,100.799
669.1780,100.782
670.1423,100.49
671.1065,100.182
672.0707,99.9906
673.0350,99.9311
673.9992,99.9705
674.9634,100.061
675.9277,100.158
676.8919,100.231
677.8561,100.279
678.8204,100.314
679.7846,100.352
680.7488,100.394
681.7131,100.437
682.6773,100.473
683.6415,100.499
684.6058,100.514
685.5700,100.52
686.5342,100.517
687.4985,100.506
688.4627,100.482
689.4269,100.445
690.3912,100.396
691.3554,100.341
692.3196,100.288
693.2839,100.239
694.2481,100.195
695.2123,100.173
696.1766,100.156
697.1408,100.126
698.1050,100.081
699.0693,100.031
700.0335,99.9888
700.9977,99.9662
701.9620,99.9671
702.9262,99.9895
703.8904,100.027
704.8547,100.071
705.8189,100.113
706.7831,100.147
707.7474,100.168
708.7116,100.181
709.6758,100.195
710.6401,100.221
711.6043,100.262
712.5685,100.315
713.5328,100.369
714.4970,100.415
715.4612,100.437
716.4255,100.471
717.3897,100.507
718.3539,100.548
719.3182,100.585
720.2824,100.606
721.2466,100.6
722.2109,100.569
723.1751,100.524
724.1393,100.477
725.1036,100.437
726.0678,100.404
727.0320,100.375
727.9963,100.347
728.9605,100.319
729.9247,100.29
730.8890,100.266
731.8532,100.247
732.8174,100.233
733.7817,100.223
734.7459,100.21
735.7101,100.19
736.6744,100.16
737.6386,100.121
738.6028,100.078
739.5671,100.04
740.5313,100.01
741.4955,99.9925
742.4598,99.9832
743.4240,99.9762
744.3882,99.9636
745.3525,99.9371
746.3167,99.8904
747.2809,99.8218
748.2452,99.7362
749.2094,99.6453
750.1736,99.5639
751.1379,99.5037
752.1021,99.4673
753.0663,99.4466
754.0306,99.4262
754.9948,99.3904
755.9590,99.33
756.9233,99.2454
757.8875,99.1452
758.8517,99.0419
759.8160,98.948
760.7802,98.8724
761.7444,98.8191
762.7087,98.7875
763.6729,98.7736
764.6371,98.772
765.6014,98.7785
766.5656,98.7914
767.5298,98.8116
768.4941,98.8405
769.4583,98.8774
770.4225,98.9183
771.3868,98.9565
772.3510,98.9854
773.3152,99.0012
774.2795,99.0036
775.2437,98.9956
776.2079,98.9808
777.1722,98.9623
778.1364,98.9416
779.1006,98.9197
780.0649,98.8978
781.0291,98.8775
781.9933,98.8602
782.9576,98.8453
783.9218,98.8307
784.8860,98.8131
785.8503,98.7897
786.8145,98.7595
787.7787,98.7232
788.7430,98.6821
789.7072,98.6365
790.6714,98.5861
791.6357,98.5304
792.5999,98.4697
793.5641,98.4066
794.5284,98.3449
795.4926,98.2889
796.4568,98.2412
797.4211,98.2019
798.3853,98.1679
799.3495,98.1339
800.3138,98.0931
801.2780,98.0397
802.2422,97.9698
803.2065,97.884
804.1707,97.7877
805.1349,97.6907
806.0992,97.6043
807.0634,97.5374
808.0276,97.4925
808.9919,97.4645
809.9561,97.4434
810.9203,97.4193
811.8846,97.3876
812.8488,97.3508
813.8130,97.3151
814.7773,97.2851
815.7415,97.2597
816.7057,97.2317
817.6700,97.1936
818.6342,97.1428
819.5984,97.085
820.5627,97.0317
821.5269,96.9949
822.4911,96.9811
823.4554,96.9893
824.4196,97.0119
825.3839,97.0397
826.3481,97.0653
827.3123,97.0855
828.2766,97.1012
829.2408,97.1158
830.2050,97.1331
831.1693,97.155
832.1335,97.1805
833.0977,97.2056
834.0620,97.2245
835.0262,97.2316
835.9904,97.2244
836.9547,97.2045
837.9189,97.1775
838.8831,97.1512
839.8474,97.1325
840.8116,97.1252
841.7758,97.1283
842.7401,97.1382
843.7043,97.151
844.6685,97.1647
845.6328,97.1798
846.5970,97.1977
847.5612,97.2181
848.5255,97.2388
849.4897,97.2572
850.4539,97.2735
851.4182,97.2915
852.3824,97.3171
853.3466,97.3542
854.3109,97.4023
855.2751,97.4572
856.2393,97.5142
857.2036,97.5724
858.1678,97.6346
859.1320,97.7049
860.0963,97.7843
861.0605,97.8695
862.0247,97.954
862.9890,98.0322
863.9532,98.1025
864.9174,98.1671
865.8817,98.2296
866.8459,98.2918
867.8101,98.3525
868.7744,98.4077
869.7386,98.4529
870.7028,98.4854
871.6671,98.5049
872.6313,98.5142
873.5955,98.5173
874.5598,98.5184
875.5240,98.5206
876.4882,98.524
877.4525,98.5268
878.4167,98.5253
879.3809,98.5166
880.3452,98.5005
881.3094,98.4804
882.2736,98.463
883.2379,98.4557
884.2021,98.4637
885.1663,98.4878
886.1306,98.5246
887.0948,98.5672
888.0590,98.6079
889.0233,98.6394
889.9875,98.6551
890.9517,98.649
891.9160,98.6169
892.8802,98.5577
893.8444,98.4753
894.8087,98.3783
895.7729,98.2769
896.7371,98.1783
897.7014,98.0833
898.6656,97.9862
899.6298,97.8789
900.5941,97.7557
901.5583,97.6168
902.5225,97.4675
903.4868,97.3156
904.4510,97.1665
905.4152,97.023
906.3795,96.8852
907.3437,96.754
908.3079,96.6331
909.2722,96.5291
910.2364,96.4503
911.2006,96.405
912.1649,96.3997
913.1291,96.4378
914.0933,96.5194
915.0576,96.6411
916.0218,96.7971
916.9860,96.9813
917.9503,97.1884
918.9145,97.4151
919.8787,97.6585
920.8430,97.9143
921.8072,98.1752
922.7714,98.4312
923.7357,98.6726
924.6999,98.8921
925.6641,99.0861
926.6284,99.254
927.5926,99.3969
928.5568,99.5168
929.5211,99.616
930.4853,99.6979
931.4495,99.7652
932.4138,99.8191
933.3780,99.8576
934.3422,99.8765
935.3065,99.8883
936.2707,99.9087
937.2349,99.9106
938.1992,99.9009
939.1634,99.8869
940.1276,99.8733
941.0919,99.8628
942.0561,99.8567
943.0203,99.8558
943.9846,99.8597
944.9488,99.8653
945.9130,99.8673
946.8773,99.8595
947.8415,99.8381
948.8057,99.8038
949.7700,99.7622
950.7342,99.7207
951.6984,99.685
952.6627,99.6557
953.6269,99.6278
954.5911,99.5934
955.5554,99.5453
956.5196,99.481
957.4838,99.4039
958.4481,99.321
959.4123,99.2389
960.3765,99.1603
961.3408,99.0833
962.3050,99.0041
963.2692,98.9213
964.2335,98.838
965.1977,98.7607
966.1619,98.6953
967.1262,98.6433
968.0904,98.6004
969.0546,98.5595
970.0189,98.5138
970.9831,98.4605
971.9473,98.4001
972.9116,98.3345
973.8758,98.264
974.8400,98.1862
975.8043,98.0968
976.7685,97.9913
977.7327,97.8673
978.6970,97.7255
979.6612,97.5698
980.6254,97.4059
981.5897,97.2401
982.5539,97.0768
983.5181,96.9175
984.4824,96.7604
985.4466,96.6013
986.4108,96.4358
987.3751,96.2614
988.3393,96.078
989.3035,95.8872
990.2678,95.6906
991.2320,95.4876
992.1962,95.2753
993.1605,95.0493
994.1247,94.8065
995.0889,94.5466
996.0532,94.2729
997.0174,93.9907
997.9816,93.7055
998.9459,93.42
999.9101,93.1334
1000.8743,92.8416
1001.8386,92.538
1002.8028,92.2167
1003.7670,91.8737
1004.7313,91.5087
1005.6955,91.1247
1006.6597,90.7267
1007.6240,90.3199
1008.5882,89.908
1009.5524,89.4932
1010.5167,89.0766
1011.4809,88.66
1012.4451,88.2473
1013.4094,87.8441
1014.3736,87.457
1015.3378,87.0917
1016.3021,86.7516
1017.2663,86.4371
1018.2305,86.1474
1019.1948,85.8815
1020.1590,85.6405
1021.1232,85.4277
1022.0875,85.2471
1023.0517,85.1017
1024.0160,84.9909
1024.9802,84.91
1025.9445,84.8518
1026.9087,84.8098
1027.8729,84.7828
1028.8372,84.7772
1029.8014,84.8069
1030.7656,84.8892
1031.7299,85.0385
1032.6941,85.2613
1033.6583,85.5539
1034.6226,85.904
1035.5868,86.295
1036.5510,86.7119
1037.5153,87.144
1038.4795,87.5836
1039.4437,88.0227
1040.4080,88.449
1041.3722,88.8463
1042.3364,89.1971
1043.3007,89.4883
1044.2649,89.7148
1045.2291,89.8812
1046.1934,89.9987
1047.1576,90.0809
1048.1218,90.14
1049.0861,90.1846
1050.0503,90.2203
1051.0145,90.2512
1051.9788,90.2812
1052.9430,90.3146
1053.9072,90.3552
1054.8715,90.4049
1055.8357,90.4628
1056.7999,90.5265
1057.7642,90.5938
1058.7284,90.6657
1059.6926,90.746
1060.6569,90.8405
1061.6211,90.9519
1062.5853,91.0769
1063.5496,91.2053
1064.5138,91.3218
1065.4780,91.4113
1066.4423,91.4635
1067.4065,91.4751
1068.3707,91.4477
1069.3350,91.384
1070.2992,91.2856
1071.2634,91.1539
1072.2277,90.9919
1073.1919,90.8054
1074.1561,90.6011
1075.1204,90.3844
1076.0846,90.1571
1077.0488,89.9165
1078.0131,89.6575
1078.9773,89.3746
1079.9415,89.0645
1080.9058,88.728
1081.8700,88.3701
1082.8342,87.9992
1083.7985,87.6246
1084.7627,87.2533
1085.7269,86.888
1086.6912,86.5275
1087.6554,86.1695
1088.6196,85.8144
1089.5839,85.467
1090.5481,85.1355
1091.5123,84.8284
1092.4766,84.5511
1093.4408,84.304
1094.4050,84.0829
1095.3693,83.8798
1096.3335,83.6846
1097.2977,83.4852
1098.2620,83.2692
1099.2262,83.0248
1100.1904,82.744
1101.1547,82.424
1102.1189,82.0675
1103.0831,81.6814
1104.0474,81.2746
1105.0116,80.8561
1105.9758,80.4367
1106.9401,80.0305
1107.9043,79.6572
1108.8685,79.3409
1109.8328,79.1065
1110.7970,78.9745
1111.7612,78.9574
1112.7255,79.0589
1113.6897,79.2765
1114.6539,79.6054
1115.6182,80.0402
1116.5824,80.5751
1117.5466,81.2013
1118.5109,81.9059
1119.4751,82.6721
1120.4393,83.4826
1121.4036,84.3228
1122.3678,85.1836
1123.3320,86.0611
1124.2963,86.9544
1125.2605,87.8628
1126.2247,88.7839
1127.1890,89.7129
1128.1532,90.6428
1129.1174,91.565
1130.0817,92.4697
1131.0459,93.3461
1132.0101,94.182
1132.9744,94.9648
1133.9386,95.6818
1134.9028,96.3219
1135.8671,96.8767
1136.8313,97.3422
1137.7955,97.7188
1138.7598,98.0105
1139.7240,98.2242
1140.6882,98.3678
1141.6525,98.4502
1142.6167,98.481
1143.5809,98.471
1144.5452,98.4318
1145.5094,98.3749
1146.4736,98.3107
1147.4379,98.2473
1148.4021,98.1908
1149.3663,98.1465
1150.3306,98.1202
1151.2948,98.1188
1152.2590,98.1484
1153.2233,98.2123
1154.1875,98.3082
1155.1517,98.4289
1156.1160,98.5645
1157.0802,98.7062
1158.0444,98.8487
1159.0087,98.9904
1159.9729,99.1315
1160.9371,99.2713
1161.9014,99.4072
1162.8656,99.5349
1163.8298,99.6433
1164.7941,99.6668
1165.7583,99.6707
1166.7225,99.6519
1167.6868,99.6074
1168.6510,99.5341
1169.6152,99.4297
1170.5795,99.2922
1171.5437,99.1197
1172.5079,98.9103
1173.4722,98.663
1174.4364,98.3784
1175.4006,98.0593
1176.3649,97.7102
1177.3291,97.3354
1178.2933,96.9384
1179.2576,96.5214
1180.2218,96.0878
1181.1860,95.6424
1182.1503,95.1926
1183.1145,94.7459
1184.0787,94.3086
1185.0430,93.8837
1186.0072,93.4712
1186.9714,93.0689
1187.9357,92.6748
1188.8999,92.2883
1189.8641,91.9109
1190.8284,91.5445
1191.7926,91.1903
1192.7568,90.8466
1193.7211,90.509
1194.6853,90.1715
1195.6495,89.8285
1196.6138,89.4757
1197.5780,89.1114
1198.5422,88.7354
1199.5065,88.2937
1200.4707,87.9039
1201.4349,87.5078
1202.3992,87.1095
1203.3634,86.7151
1204.3276,86.3317
1205.2919,85.9665
1206.2561,85.6261
1207.2203,85.3163
1208.1846,85.0427
1209.1488,84.8106
1210.1130,84.6248
1211.0773,84.4893
1212.0415,84.4066
1213.0057,84.3781
1213.9700,84.404
1214.9342,84.4833
1215.8984,84.6136
1216.8627,84.7908
1217.8269,85.0087
1218.7911,85.2602
1219.7554,85.5387
1220.7196,85.8382
1221.6838,86.1535
1222.6481,86.4793
1223.6123,86.8083
1224.5765,87.1317
1225.5408,87.4395
1226.5050,87.7231
1227.4692,87.9768
1228.4335,88.1991
1229.3977,88.3919
1230.3619,88.5597
1231.3262,88.7073
1232.2904,88.8391
1233.2546,88.9584
1234.2189,89.0675
1235.1831,89.1686
1236.1473,89.2644
1237.1116,89.3591
1238.0758,89.457
1239.0400,89.5625
1240.0043,89.6783
1240.9685,89.8051
1241.9327,89.9418
1242.8970,90.0861
1243.8612,90.2355
1244.8254,90.3878
1245.7897,90.5404
1246.7539,90.6898
1247.7181,90.8312
1248.6824,90.9589
1249.6466,91.0674
1250.6108,91.1521
1251.5751,91.2104
1252.5393,91.2415
1253.5035,91.2461
1254.4678,91.2263
1255.4320,91.1851
1256.3962,91.1258
1257.3605,91.0515
1258.3247,90.9643
1259.2889,90.8655
1260.2532,90.7563
1261.2174,90.6388
1262.1816,90.5167
1263.1459,90.3947
1264.1101,90.2779
1265.0743,90.171
1266.0386,90.0781
1267.0028,90.0029
1267.9670,89.9496
1268.9313,89.9224
1269.8955,89.9254
1270.8597,89.9604
1271.8240,90.0257
1272.7882,90.1161
1273.7524,90.2237
1274.7167,90.3406
1275.6809,90.4608
1276.6451,90.5815
1277.6094,90.7023
1278.5736,90.8239
1279.5378,90.946
1280.5021,91.0666
1281.4663,91.182
1282.4305,91.2885
1283.3948,91.3833
1284.3590,91.4656
1285.3232,91.5359
1286.2875,91.5946
1287.2517,91.6412
1288.2159,91.6742
1289.1802,91.6924
1290.1444,91.6961
1291.1086,91.6868
1292.0729,91.6665
1293.0371,91.6359
1294.0013,91.5945
1294.9656,91.5407
1295.9298,91.4738
1296.8940,91.3952
1297.8583,91.3079
1298.8225,91.2153
1299.7867,91.1201
1300.7510,91.0237
1301.7152,90.9273
1302.6794,90.8325
1303.6437,90.7414
1304.6079,90.6567
1305.5721,90.58
1306.5364,90.5112
1307.5006,90.4481
1308.4648,90.3884
1309.4291,90.3309
1310.3933,90.2767
1311.3575,90.2283
1312.3218,90.1885
1313.2860,90.1583
1314.2502,90.1373
1315.2145,90.124
1316.1787,90.1178
1317.1429,90.1184
1318.1072,90.1254
1319.0714,90.137
1320.0356,90.151
1320.9999,90.166
1321.9641,90.1827
1322.9283,90.2039
1323.8926,90.2343
1324.8568,90.2787
1325.8210,90.3414
1326.7853,90.4254
1327.7495,90.5329
1328.7137,90.6661
1329.6780,90.8268
1330.6422,91.0145
1331.6064,91.2245
1332.5707,91.4473
1333.5349,91.6725
1334.4991,91.895
1335.4634,92.1203
1336.4276,92.3644
1337.3918,92.6454
1338.3561,92.9675
1339.3203,93.3111
1340.2845,93.6428
1341.2488,93.9387
1342.2130,94.1943
1343.1772,94.4185
1344.1415,94.6226
1345.1057,94.8139
1346.0699,94.9936
1347.0342,95.1576
1347.9984,95.3008
1348.9626,95.4205
1349.9269,95.5186
1350.8911,95.5995
1351.8553,95.6699
1352.8196,95.7367
1353.7838,95.8056
1354.7480,95.8768
1355.7123,95.9434
1356.6765,95.9948
1357.6407,96.0241
1358.6050,96.0358
1359.5692,96.0475
1360.5334,96.0819
1361.4977,96.1505
1362.4619,96.2422
1363.4261,96.3345
1364.3904,96.4133
1365.3546,96.4801
1366.3188,96.5444
1367.2831,96.6152
1368.2473,96.696
1369.2115,96.7853
1370.1758,96.8829
1371.1400,96.998
1372.1042,97.1497
1373.0685,97.3542
1374.0327,97.6063
1374.9969,97.8751
1375.9612,98.1259
1376.9254,98.3447
1377.8896,98.5397
1378.8539,98.7272
1379.8181,98.9155
1380.7823,99.097
1381.7466,99.2539
1382.7108,99.3719
1383.6750,99.4534
1384.6393,99.519
1385.6035,99.5964
1386.5677,99.7005
1387.5320,99.821
1388.4962,99.9336
1389.4604,100.019
1390.4247,100.068
1391.3889,100.087
1392.3531,100.089
1393.3174,100.093
1394.2816,100.108
1395.2458,100.126
1396.2101,100.135
1397.1743,100.127
1398.1385,100.105
1399.1028,100.072
1400.0670,100.03
1401.0313,99.9544
1401.9955,99.8528
1402.9597,99.7224
1403.9240,99.5579
1404.8882,99.3567
1405.8524,99.1209
1406.8167,98.8569
1407.7809,98.5678
1408.7451,98.247
1409.7094,97.883
1410.6736,97.4705
1411.6378,97.0178
1412.6021,96.5439
1413.5663,96.0624
1414.5305,95.5719
1415.4948,95.0607
1416.4590,94.5199
1417.4232,93.9555
1418.3875,93.4013
1419.3517,92.9175
1420.3159,92.55
1421.2802,92.2941
1422.2444,92.1124
1423.2086,91.9736
1424.1729,91.8668
1425.1371,91.7964
1426.1013,91.7759
1427.0656,91.8253
1428.0298,91.9658
1428.9940,92.2027
1429.9583,92.5049
1430.9225,92.8096
1431.8867,93.0588
1432.8510,93.2321
1433.8152,93.3504
1434.7794,93.4521
1435.7437,93.5507
1436.7079,93.6072
1437.6721,93.5667
1438.6364,93.411
1439.6006,93.1469
1440.5648,92.7793
1441.5291,92.3146
1442.4933,91.7714
1443.4575,91.1792
1444.4218,90.5658
1445.3860,89.9476
1446.3502,89.3323
1447.3145,88.7345
1448.2787,88.1846
1449.2429,87.7155
1450.2072,87.3346
1451.1714,87.0152
1452.1356,86.7172
1453.0999,86.4178
1454.0641,86.135
1455.0283,85.9297
1455.9926,85.8574
1456.9568,85.8661
1457.9210,85.8391
1458.8853,85.7729
1459.8495,85.7123
1460.8137,85.6628
1461.7780,85.6391
1462.7422,85.707
1463.7064,85.9634
1464.6707,86.453
1465.6349,87.0926
1466.5991,87.7287
1467.5634,88.2643
1468.5276,88.7006
1469.4918,89.1118
1470.4561,89.6169
1471.4203,90.3284
1472.3845,91.2372
1473.3488,92.1359
1474.3130,92.8032
1475.2772,93.2199
1476.2415,93.4816
1477.2057,93.6564
1478.1699,93.765
1479.1342,93.8066
1480.0984,93.7763
1481.0626,93.6717
1482.0269,93.495
1482.9911,93.2542
1483.9553,92.9616
1484.9196,92.6326
1485.8838,92.2829
1486.8480,91.9237
1487.8123,91.5479
1488.7765,91.1325
1489.7407,90.6842
1490.7050,90.2586
1491.6692,89.8915
1492.6334,89.5648
1493.5977,89.2444
1494.5619,88.9153
1495.5261,88.5895
1496.4904,88.2916
1497.4546,88.0408
1498.4188,87.8429
1499.3831,87.686
1500.3473,87.5369
1501.3115,87.3537
1502.2758,87.1093
1503.2400,86.8109
1504.2042,86.5119
1505.1685,86.3051
1506.1327,86.241
1507.0969,86.1957
1508.0612,86.0356
1509.0254,85.8472
1509.9896,85.7051
1510.9539,85.5915
1511.9181,85.4958
1512.8823,85.4577
1513.8466,85.556
1514.8108,85.8648
1515.7750,86.396
1516.7393,87.084
1517.7035,87.8533
1518.6677,88.7131
1519.6320,89.7636
1520.5962,91.0731
1521.5604,92.5354
1522.5247,93.9124
1523.4889,95.0416
1524.4531,95.9365
1525.4174,96.6996
1526.3816,97.398
1527.3458,98.0204
1528.3101,98.5193
1529.2743,98.8742
1530.2385,99.1179
1531.2028,99.3228
1532.1670,99.5541
1533.1312,99.8109
1534.0955,100.022
1535.0597,100.116
1536.0239,100.081
1536.9882,99.9684
1537.9524,99.8817
1538.9166,99.9648
1539.8809,100.276
1540.8451,100.592
1541.8093,100.652
1542.7736,100.543
1543.7378,100.43
1544.7020,100.351
1545.6663,100.284
1546.6305,100.211
1547.5947,100.123
1548.5590,100.019
1549.5232,99.8994
1550.4874,99.7967
1551.4517,99.681
1552.4159,99.5487
1553.3801,99.3947
1554.3444,99.2175
1555.3086,99.0331
1556.2728,98.8847
1557.2371,98.8033
1558.2013,98.6962
1559.1655,98.451
1560.1298,98.2172
1561.0940,98.1224
1562.0582,98.0994
1563.0225,98.0513
1563.9867,97.9326
1564.9509,97.7457
1565.9152,97.5163
1566.8794,97.2688
1567.8436,97.0074
1568.8079,96.7196
1569.7721,96.4085
1570.7363,96.1012
1571.7006,95.8146
1572.6648,95.5366
1573.6290,95.2417
1574.5933,94.9056
1575.5575,94.5118
1576.5217,94.0763
1577.4860,93.6626
1578.4502,93.3151
1579.4144,93.0084
1580.3787,92.6891
1581.3429,92.3273
1582.3071,91.9293
1583.2714,91.5243
1584.2356,91.1406
1585.1998,90.7894
1586.1641,90.4654
1587.1283,90.161
1588.0925,89.8762
1589.0568,89.6175
1590.0210,89.3898
1590.9852,89.1927
1591.9495,89.0225
1592.9137,88.8755
1593.8779,88.749
1594.8422,88.6389
1595.8064,88.5394
1596.7706,88.4457
1597.7349,88.3572
1598.6991,88.2773
1599.6633,88.2102
1600.6276,88.1585
1601.5918,88.1218
1602.5560,88.0982
1603.5203,88.0855
1604.4845,88.0823
1605.4487,88.0888
1606.4130,88.1089
1607.3772,88.151
1608.3414,88.2219
1609.3057,88.3181
1610.2699,88.4222
1611.2341,88.5124
1612.1984,88.5809
1613.1626,88.6526
1614.1268,88.7943
1615.0911,89.0908
1616.0553,89.5638
1617.0195,90.1069
1617.9838,90.5781
1618.9480,90.9327
1619.9122,91.2167
1620.8765,91.5037
1621.8407,91.8532
1622.8049,92.2737
1623.7692,92.708
1624.7334,93.0831
1625.6976,93.379
1626.6619,93.6306
1627.6261,93.8757
1628.5903,94.116
1629.5546,94.3196
1630.5188,94.4523
1631.4830,94.5073
1632.4473,94.5189
1633.4115,94.5627
1634.3757,94.7237
1635.3400,95.0059
1636.3042,95.2853
1637.2684,95.4611
1638.2327,95.5541
1639.1969,95.6078
1640.1611,95.6314
1641.1254,95.6171
1642.0896,95.5629
1643.0538,95.486
1644.0181,95.4279
1644.9823,95.4353
1645.9465,95.5058
1646.9108,95.5619
1647.8750,95.5326
1648.8392,95.4152
1649.8035,95.2413
1650.7677,95.064
1651.7319,94.9603
1652.6962,94.9592
1653.6604,94.9659
1654.6246,94.9319
1655.5889,94.9102
1656.5531,94.8977
1657.5173,94.8549
1658.4816,94.7662
1659.4458,94.6478
1660.4100,94.5299
1661.3743,94.4293
1662.3385,94.3383
1663.3027,94.2414
1664.2670,94.1344
1665.2312,94.0206
1666.1954,93.9086
1667.1597,93.8156
1668.1239,93.7594
1669.0881,93.7355
1670.0524,93.7118
1671.0166,93.6617
1671.9808,93.587
1672.9451,93.5036
1673.9093,93.4295
1674.8735,93.3808
1675.8378,93.3639
1676.8020,93.3698
1677.7662,93.3759
1678.7305,93.3564
1679.6947,93.2982
1680.6589,93.2157
1681.6232,93.1536
1682.5874,93.1602
1683.5516,93.2242
1684.5159,93.278
1685.4801,93.2997
1686.4443,93.3126
1687.4086,93.3188
1688.3728,93.3012
1689.3370,93.2462
1690.3013,93.1508
1691.2655,93.0208
1692.2297,92.8679
1693.1940,92.7088
1694.1582,92.5634
1695.1224,92.449
1696.0867,92.3676
1697.0509,92.2992
1698.0151,92.2109
1698.9794,92.0888
1699.9436,91.9584
1700.9078,91.8623
1701.8721,91.8187
1702.8363,91.8128
1703.8005,91.8166
1704.7648,91.8085
1705.7290,91.779
1706.6932,91.731
1707.6575,91.6755
1708.6217,91.6224
1709.5859,91.5739
1710.5502,91.5259
1711.5144,91.4753
1712.4786,91.4265
1713.4429,91.3984
1714.4071,91.4265
1715.3713,91.5464
1716.3356,91.7454
1717.2998,91.9441
1718.2640,92.0864
1719.2283,92.1927
1720.1925,92.2964
1721.1567,92.4086
1722.1210,92.5282
1723.0852,92.6523
1724.0494,92.7776
1725.0137,92.9019
1725.9779,93.0256
1726.9421,93.1494
1727.9064,93.2701
1728.8706,93.3815
1729.8348,93.4848
1730.7991,93.6007
1731.7633,93.769
1732.7275,94.0146
1733.6918,94.3023
1734.6560,94.5626
1735.6202,94.7647
1736.5845,94.9217
1737.5487,95.0589
1738.5129,95.2011
1739.4772,95.3653
1740.4414,95.5511
1741.4056,95.74
1742.3699,95.9129
1743.3341,96.0643
1744.2983,96.2001
1745.2626,96.3292
1746.2268,96.4602
1747.1910,96.6021
1748.1553,96.7595
1749.1195,96.9229
1750.0837,97.0723
1751.0480,97.1964
1752.0122,97.3013
1752.9764,97.3982
1753.9407,97.4957
1754.9049,97.5982
1755.8691,97.7053
1756.8334,97.8102
1757.7976,97.9053
1758.7618,97.99
1759.7261,98.0728
1760.6903,98.1631
1761.6545,98.2599
1762.6188,98.3514
1763.5830,98.4254
1764.5472,98.4784
1765.5115,98.5168
1766.4757,98.5522
1767.4399,98.5974
1768.4042,98.6638
1769.3684,98.7582
1770.3326,98.8783
1771.2969,99.0063
1772.2611,99.1139
1773.2253,99.1853
1774.1896,99.2286
1775.1538,99.2595
1776.1180,99.2876
1777.0823,99.318
1778.0465,99.3545
1779.0107,99.3978
1779.9750,99.4414
1780.9392,99.4768
1781.9034,99.5009
1782.8677,99.5194
1783.8319,99.5403
1784.7961,99.5665
1785.7604,99.5932
1786.7246,99.6118
1787.6888,99.6177
1788.6531,99.6166
1789.6173,99.6248
1790.5815,99.659
1791.5458,99.7175
1792.5100,99.7759
1793.4742,99.8126
1794.4385,99.8277
1795.4027,99.8302
1796.3669,99.8263
1797.3312,99.8215
1798.2954,99.8217
1799.2596,99.8299
1800.2239,99.8425
1801.1881,99.8525
1802.1523,99.8558
1803.1166,99.8527
1804.0808,99.8452
1805.0450,99.8353
1806.0093,99.8261
1806.9735,99.8221
1807.9377,99.8272
1808.9020,99.8418
1809.8662,99.8706
1810.8304,99.9022
1811.7947,99.9226
1812.7589,99.9322
1813.7231,99.9359
1814.6874,99.9393
1815.6516,99.9462
1816.6158,99.9575
1817.5801,99.9705
1818.5443,99.9809
1819.5085,99.9856
1820.4728,99.9851
1821.4370,99.9835
1822.4012,99.9864
1823.3655,99.9972
1824.3297,100.016
1825.2939,100.038
1826.2582,100.064
1827.2224,100.092
1828.1866,100.121
1829.1509,100.145
1830.1151,100.156
1831.0793,100.154
1832.0436,100.145
1833.0078,100.138
1833.9720,100.138
1834.9363,100.144
1835.9005,100.154
1836.8647,100.163
1837.8290,100.161
1838.7932,100.145
1839.7574,100.119
1840.7217,100.093
1841.6859,100.08
1842.6501,100.094
1843.6144,100.13
1844.5786,100.17
1845.5428,100.198
1846.5071,100.21
1847.4713,100.212
1848.4355,100.207
1849.3998,100.2
1850.3640,100.191
1851.3282,100.184
1852.2925,100.178
1853.2567,100.174
1854.2209,100.172
1855.1852,100.171
1856.1494,100.17
1857.1136,100.171
1858.0779,100.171
1859.0421,100.171
1860.0063,100.171
1860.9706,100.17
1861.9348,100.17
1862.8990,100.17
1863.8633,100.172
1864.8275,100.182
1865.7917,100.204
1866.7560,100.238
1867.7202,100.275
1868.6844,100.296
1869.6487,100.292
1870.6129,100.273
1871.5771,100.253
1872.5414,100.237
1873.5056,100.228
1874.4698,100.225
1875.4341,100.224
1876.3983,100.225
1877.3625,100.225
1878.3268,100.225
1879.2910,100.225
1880.2552,100.228
1881.2195,100.232
1882.1837,100.236
1883.1479,100.235
1884.1122,100.23
1885.0764,100.224
1886.0406,100.222
1887.0049,100.228
1887.9691,100.242
1888.9333,100.259
1889.8976,100.27
1890.8618,100.274
1891.8260,100.272
1892.7903,100.27
1893.7545,100.271
1894.7188,100.276
1895.6830,100.282
1896.6472,100.283
1897.6115,100.28
1898.5757,100.275
1899.5399,100.271
1900.5042,100.271
1901.4684,100.275
1902.4326,100.281
1903.3969,100.287
1904.3611,100.291
1905.3253,100.295
1906.2896,100.301
1907.2538,100.31
1908.2180,100.32
1909.1823,100.328
1910.1465,100.33
1911.1107,100.322
1912.0750,100.309
1913.0392,100.294
1914.0034,100.281
1914.9677,100.276
1915.9319,100.278
1916.8961,100.287
1917.8604,100.296
1918.8246,100.303
1919.7888,100.309
1920.7531,100.316
1921.7173,100.325
1922.6815,100.333
1923.6458,100.335
1924.6100,100.327
1925.5742,100.313
1926.5385,100.296
1927.5027,100.282
1928.4669,100.274
1929.4312,100.272
1930.3954,100.274
1931.3596,100.276
1932.3239,100.278
1933.2881,100.279
1934.2523,100.279
1935.2166,100.279
1936.1808,100.277
1937.1450,100.274
1938.1093,100.27
1939.0735,100.269
1940.0377,100.275
1941.0020,100.288
1941.9662,100.303
1942.9304,100.315
1943.8947,100.318
1944.8589,100.314
1945.8231,100.305
1946.7874,100.295
1947.7516,100.287
1948.7158,100.28
1949.6801,100.274
1950.6443,100.271
1951.6085,100.271
1952.5728,100.273
1953.5370,100.276
1954.5012,100.278
1955.4655,100.279
1956.4297,100.28
1957.3939,100.281
1958.3582,100.284
1959.3224,100.289
1960.2866,100.294
1961.2509,100.297
1962.2151,100.297
1963.1793,100.297
1964.1436,100.298
1965.1078,100.302
1966.0720,100.308
1967.0363,100.312
1968.0005,100.31
1968.9647,100.304
1969.9290,100.297
1970.8932,100.293
1971.8574,100.293
1972.8217,100.295
1973.7859,100.297
1974.7501,100.298
1975.7144,100.295
1976.6786,100.292
1977.6428,100.289
1978.6071,100.288
1979.5713,100.288
1980.5355,100.287
1981.4998,100.287
1982.4640,100.287
1983.4282,100.289
1984.3925,100.292
1985.3567,100.297
1986.3209,100.302
1987.2852,100.306
1988.2494,100.311
1989.2136,100.317
1990.1779,100.325
1991.1421,100.331
1992.1063,100.333
1993.0706,100.33
1994.0348,100.323
1994.9990,100.314
1995.9633,100.308
1996.9275,100.306
1997.8917,100.308
1998.8560,100.312
1999.8202,100.315
2000.7844,100.314
2001.7487,100.31
2002.7129,100.305
2003.6771,100.3
2004.6414,100.297
2005.6056,100.296
2006.5698,100.296
2007.5341,100.296
2008.4983,100.295
2009.4625,100.292
2010.4268,100.287
2011.3910,100.282
2012.3552,100.279
2013.3195,100.282
2014.2837,100.29
2015.2479,100.301
2016.2122,100.311
2017.1764,100.315
2018.1406,100.31
2019.1049,100.299
2020.0691,100.286
2021.0333,100.276
2021.9976,100.271
2022.9618,100.272
2023.9260,100.276
2024.8903,100.278
2025.8545,100.276
2026.8187,100.269
2027.7830,100.26
2028.7472,100.252
2029.7114,100.245
2030.6757,100.242
2031.6399,100.243
2032.6041,100.246
2033.5684,100.25
2034.5326,100.254
2035.4968,100.257
2036.4611,100.259
2037.4253,100.261
2038.3895,100.261
2039.3538,100.262
2040.3180,100.262
2041.2822,100.26
2042.2465,100.256
2043.2107,100.25
2044.1749,100.244
2045.1392,100.239
2046.1034,100.234
2047.0676,100.23
2048.0320,100.226
2048.9961,100.223
2049.9604,100.221
2050.9246,100.221
2051.8889,100.222
2052.8530,100.225
2053.8174,100.227
2054.7815,100.227
2055.7458,100.225
2056.7100,100.222
2057.6743,100.22
2058.6384,100.218
2059.6028,100.219
2060.5669,100.222
2061.5313,100.227
2062.4954,100.233
2063.4597,100.24
2064.4238,100.244
2065.3882,100.243
2066.3523,100.238
2067.3167,100.23
2068.2808,100.22
2069.2451,100.213
2070.2092,100.209
2071.1736,100.21
2072.1377,100.213
2073.1021,100.219
2074.0662,100.226
2075.0305,100.232
2075.9946,100.236
2076.9590,100.237
2077.9231,100.234
2078.8875,100.227
2079.8516,100.219
2080.8159,100.213
2081.7800,100.209
2082.7444,100.211
2083.7085,100.216
2084.6729,100.225
2085.6370,100.233
2086.6013,100.239
2087.5654,100.243
2088.5298,100.244
2089.4939,100.245
2090.4583,100.245
2091.4224,100.244
2092.3867,100.243
2093.3508,100.24
2094.3152,100.237
2095.2793,100.234
2096.2437,100.231
2097.2078,100.228
2098.1721,100.225
2099.1362,100.224
2100.1006,100.225
2101.0647,100.227
2102.0291,100.231
2102.9932,100.235
2103.9575,100.235
2104.9216,100.232
2105.8860,100.225
2106.8501,100.218
2107.8145,100.212
2108.7786,100.211
2109.7429,100.212
2110.7070,100.215
2111.6714,100.218
2112.6355,100.218
2113.5999,100.217
2114.5640,100.215
2115.5283,100.211
2116.4924,100.208
2117.4568,100.204
2118.4209,100.201
2119.3853,100.199
2120.3494,100.198
2121.3137,100.198
2122.2778,100.197
2123.2422,100.196
2124.2063,100.193
2125.1707,100.192
2126.1348,100.192
2127.0991,100.193
2128.0632,100.195
2129.0276,100.196
2129.9917,100.196
2130.9561,100.194
2131.9202,100.191
2132.8845,100.191
2133.8486,100.194
2134.8130,100.201
2135.7771,100.209
2136.7415,100.217
2137.7056,100.22
2138.6699,100.217
2139.6340,100.21
2140.5984,100.201
2141.5625,100.193
2142.5269,100.187
2143.4910,100.184
2144.4553,100.182
2145.4194,100.181
2146.3838,100.181
2147.3479,100.182
2148.3123,100.186
2149.2764,100.19
2150.2407,100.194
2151.2048,100.197
2152.1692,100.198
2153.1333,100.198
2154.0977,100.196
2155.0618,100.194
2156.0261,100.191
2156.9902,100.189
2157.9546,100.189
2158.9187,100.19
2159.8831,100.193
2160.8472,100.197
2161.8115,100.202
2162.7756,100.207
2163.7400,100.21
2164.7041,100.211
2165.6685,100.213
2166.6326,100.214
2167.5969,100.214
2168.5610,100.213
2169.5254,100.211
2170.4895,100.208
2171.4539,100.205
2172.4180,100.203
2173.3823,100.205
2174.3464,100.209
2175.3108,100.213
2176.2749,100.217
2177.2393,100.219
2178.2034,100.22
2179.1677,100.222
2180.1318,100.224
2181.0962,100.226
2182.0603,100.227
2183.0247,100.227
2183.9888,100.226
2184.9531,100.224
2185.9172,100.221
2186.8816,100.22
2187.8457,100.218
2188.8101,100.217
2189.7742,100.218
2190.7385,100.221
2191.7026,100.227
2192.6670,100.233
2193.6311,100.237
2194.5955,100.237
2195.5596,100.233
2196.5239,100.225
2197.4880,100.218
2198.4524,100.213
2199.4165,100.212
2200.3809,100.213
2201.3450,100.216
2202.3093,100.217
2203.2734,100.216
2204.2378,100.213
2205.2019,100.208
2206.1663,100.203
2207.1304,100.198
2208.0947,100.194
2209.0588,100.193
2210.0232,100.194
2210.9873,100.196
2211.9517,100.199
2212.9158,100.202
2213.8801,100.203
2214.8442,100.202
2215.8086,100.2
2216.7727,100.197
2217.7371,100.194
2218.7012,100.194
2219.6655,100.194
2220.6296,100.196
2221.5940,100.196
2222.5581,100.194
2223.5225,100.188
2224.4866,100.18
2225.4509,100.172
2226.4150,100.165
2227.3794,100.161
2228.3435,100.161
2229.3079,100.162
2230.2720,100.164
2231.2363,100.165
2232.2004,100.165
2233.1648,100.166
2234.1289,100.168
2235.0933,100.17
2236.0574,100.171
2237.0217,100.169
2237.9858,100.165
2238.9502,100.157
2239.9143,100.148
2240.8787,100.14
2241.8428,100.134
2242.8071,100.131
2243.7712,100.131
2244.7356,100.133
2245.6997,100.135
2246.6641,100.136
2247.6282,100.134
2248.5925,100.13
2249.5566,100.124
2250.5210,100.117
2251.4851,100.112
2252.4495,100.108
2253.4136,100.104
2254.3779,100.1
2255.3420,100.096
2256.3064,100.092
2257.2705,100.088
2258.2349,100.084
2259.1990,100.079
2260.1633,100.073
2261.1274,100.067
2262.0918,100.062
2263.0559,100.059
2264.0203,100.057
2264.9844,100.056
2265.9487,100.054
2266.9128,100.049
2267.8772,100.042
2268.8413,100.034
2269.8057,100.026
2270.7698,100.019
2271.7341,100.015
2272.6982,100.012
2273.6626,100.013
2274.6267,100.015
2275.5911,100.018
2276.5552,100.021
2277.5195,100.022
2278.4836,100.019
2279.4480,100.013
2280.4121,100.004
2281.3765,99.978
2282.3406,99.9513
2283.3049,99.9232
2284.2690,99.8922
2285.2334,99.8571
2286.1975,99.8176
2287.1619,99.7744
2288.1260,99.7283
2289.0903,99.6804
2290.0544,99.6316
2291.0188,99.5832
2291.9829,99.5357
2292.9473,99.4893
2293.9114,99.4431
2294.8757,99.3954
2295.8398,99.3448
2296.8042,99.2904
2297.7683,99.2323
2298.7327,99.171
2299.6968,99.1058
2300.6611,99.035
2301.6252,98.9564
2302.5896,98.8686
2303.5537,98.7731
2304.5181,98.6736
2305.4822,98.5753
2306.4465,98.482
2307.4106,98.3941
2308.3750,98.3089
2309.3391,98.2221
2310.3035,98.1312
2311.2676,98.0375
2312.2319,97.9444
2313.1960,97.8547
2314.1604,97.7674
2315.1245,97.6783
2316.0889,97.5824
2317.0530,97.4788
2318.0173,97.3724
2318.9814,97.2737
2319.9458,97.1947
2320.9099,97.1446
2321.8743,97.1267
2322.8384,97.1384
2323.8027,97.1729
2324.7668,97.2215
2325.7312,97.2745
2326.6953,97.3224
2327.6597,97.3577
2328.6238,97.3773
2329.5881,97.3849
2330.5522,97.3899
2331.5166,97.4034
2332.4807,97.4306
2333.4451,97.4683
2334.4092,97.5082
2335.3735,97.544
2336.3376,97.5751
2337.3020,97.6052
2338.2661,97.639
2339.2305,97.6786
2340.1946,97.7195
2341.1589,97.7426
2342.1230,97.7089
2343.0874,97.5837
2344.0515,97.3935
2345.0159,97.2296
2345.9800,97.1567
2346.9443,97.1537
2347.9084,97.1519
2348.8728,97.0973
2349.8369,96.9865
2350.8013,96.8739
2351.7654,96.8542
2352.7297,97.017
2353.6938,97.3827
2354.6582,97.8775
2355.6223,98.398
2356.5867,98.8883
2357.5508,99.3318
2358.5151,99.6953
2359.4792,99.9226
2360.4436,99.9802
2361.4077,99.8819
2362.3721,99.6608
2363.3362,99.3388
2364.3005,98.9656
2365.2646,98.5626
2366.2290,98.1434
2367.1931,97.7506
2368.1575,97.4144
2369.1216,97.151
2370.0859,96.9665
2371.0500,96.8604
2372.0144,96.8275
2372.9785,96.8603
2373.9429,96.9506
2374.9070,97.0907
2375.8713,97.2728
2376.8354,97.488
2377.7998,97.7259
2378.7639,97.9741
2379.7283,98.2205
2380.6924,98.4539
2381.6567,98.666
2382.6208,98.8515
2383.5852,99.0093
2384.5493,99.141
2385.5137,99.2506
2386.4778,99.3429
2387.4421,99.4223
2388.4063,99.4916
2389.3706,99.5526
2390.3347,99.6059
2391.2991,99.6526
2392.2632,99.6953
2393.2275,99.7378
2394.1917,99.7842
2395.1560,99.82
2396.1201,99.8334
2397.0845,99.8477
2398.0486,99.8582
2399.0129,99.8613
2399.9771,99.8569
2400.9414,99.8485
2401.9055,99.8405
2402.8699,99.8365
2403.8340,99.8371
2404.7983,99.8409
2405.7625,99.8452
2406.7268,99.8484
2407.6909,99.8499
2408.6553,99.8504
2409.6194,99.8503
2410.5837,99.8499
2411.5479,99.849
2412.5122,99.8474
2413.4763,99.8455
2414.4407,99.8438
2415.4048,99.8426
2416.3691,99.842
2417.3333,99.842
2418.2976,99.8425
2419.2617,99.8438
2420.2261,99.8458
2421.1902,99.8481
2422.1545,99.8499
2423.1187,99.8505
2424.0830,99.8494
2425.0471,99.8475
2426.0115,99.8458
2426.9756,99.8456
2427.9399,99.8472
2428.9041,99.8498
2429.8684,99.8519
2430.8325,99.8522
2431.7969,99.8504
2432.7610,99.8475
2433.7253,99.8451
2434.6895,99.8449
2435.6538,99.847
2436.6179,99.8506
2437.5823,99.8544
2438.5464,99.8571
2439.5107,99.859
2440.4749,99.8608
2441.4392,99.8636
2442.4033,99.8682
2443.3677,99.8742
2444.3318,99.8806
2445.2961,99.8861
2446.2603,99.8895
2447.2246,99.8903
2448.1887,99.8888
2449.1531,99.886
2450.1172,99.8834
2451.0815,99.8819
2452.0457,99.8817
2453.0100,99.8821
2453.9741,99.882
2454.9385,99.8811
2455.9026,99.8795
2456.8669,99.878
2457.8311,99.8775
2458.7954,99.8779
2459.7595,99.8786
2460.7239,99.8789
2461.6880,99.8783
2462.6523,99.8774
2463.6165,99.877
2464.5808,99.8781
2465.5449,99.8812
2466.5093,99.8864
2467.4734,99.8928
2468.4377,99.8992
2469.4019,99.9039
2470.3662,99.9059
2471.3303,99.9048
2472.2947,99.9013
2473.2588,99.897
2474.2231,99.8934
2475.1873,99.8915
2476.1516,99.8919
2477.1157,99.8944
2478.0801,99.8985
2479.0442,99.9035
2480.0085,99.9089
2480.9727,99.9138
2481.9370,99.9177
2482.9011,99.9209
2483.8655,99.9237
2484.8296,99.9268
2485.7939,99.9303
2486.7581,99.9335
2487.7224,99.9355
2488.6865,99.9356
2489.6509,99.9339
2490.6150,99.931
2491.5793,99.9283
2492.5435,99.9265
2493.5078,99.9261
2494.4719,99.9269
2495.4363,99.9284
2496.4004,99.9302
2497.3647,99.9322
2498.3289,99.935
2499.2932,99.9396
2500.2573,99.9465
2501.2217,99.9554
2502.1858,99.9642
2503.1501,99.9701
2504.1143,99.9708
2505.0786,99.966
2506.0427,99.9581
2507.0071,99.951
2507.9712,99.9478
2508.9355,99.949
2509.8997,99.9529
2510.8640,99.9566
2511.8281,99.9582
2512.7925,99.9582
2513.7566,99.9584
2514.7209,99.9604
2515.6851,99.9644
2516.6494,99.9694
2517.6135,99.974
2518.5779,99.9778
2519.5420,99.9814
2520.5063,99.9853
2521.4705,99.9888
2522.4348,99.9905
2523.3989,99.989
2524.3633,99.9844
2525.3274,99.9783
2526.2917,99.9737
2527.2559,99.973
2528.2202,99.9769
2529.1843,99.9843
2530.1487,99.9933
2531.1128,100.002
2532.0771,100.009
2533.0413,100.013
2534.0056,100.015
2534.9697,100.015
2535.9341,100.014
2536.8982,100.013
2537.8625,100.012
2538.8267,100.013
2539.7910,100.015
2540.7551,100.018
2541.7195,100.022
2542.6836,100.028
2543.6479,100.033
2544.6121,100.039
2545.5764,100.043
2546.5405,100.045
2547.5049,100.046
2548.4690,100.046
2549.4333,100.045
2550.3975,100.044
2551.3618,100.044
2552.3259,100.045
2553.2903,100.046
2554.2544,100.049
2555.2188,100.054
2556.1829,100.06
2557.1472,100.067
2558.1113,100.072
2559.0757,100.076
2560.0398,100.078
2561.0042,100.078
2561.9683,100.076
2562.9326,100.074
2563.8967,100.071
2564.8611,100.067
2565.8252,100.064
2566.7896,100.064
2567.7537,100.067
2568.7180,100.074
2569.6821,100.084
2570.6465,100.094
2571.6106,100.103
2572.5750,100.108
2573.5391,100.11
2574.5034,100.111
2575.4675,100.11
2576.4319,100.11
2577.3960,100.109
2578.3604,100.108
2579.3245,100.108
2580.2888,100.107
2581.2529,100.108
2582.2173,100.111
2583.1814,100.114
2584.1458,100.117
2585.1099,100.12
2586.0742,100.12
2587.0383,100.119
2588.0027,100.119
2588.9668,100.12
2589.9312,100.124
2590.8953,100.132
2591.8596,100.141
2592.8237,100.149
2593.7881,100.153
2594.7522,100.152
2595.7166,100.149
2596.6807,100.145
2597.6450,100.145
2598.6091,100.148
2599.5735,100.154
2600.5376,100.16
2601.5020,100.164
2602.4661,100.166
2603.4304,100.166
2604.3945,100.167
2605.3589,100.168
2606.3230,100.169
2607.2874,100.17
2608.2515,100.17
2609.2158,100.169
2610.1799,100.169
2611.1443,100.173
2612.1084,100.178
2613.0728,100.186
2614.0369,100.192
2615.0012,100.197
2615.9653,100.2
2616.9297,100.202
2617.8938,100.204
2618.8582,100.207
2619.8223,100.211
2620.7866,100.214
2621.7507,100.217
2622.7151,100.218
2623.6792,100.218
2624.6436,100.216
2625.6077,100.213
2626.5720,100.21
2627.5361,100.206
2628.5005,100.204
2629.4646,100.205
2630.4290,100.207
2631.3931,100.21
2632.3574,100.213
2633.3215,100.214
2634.2859,100.215
2635.2500,100.216
2636.2144,100.218
2637.1785,100.22
2638.1428,100.223
2639.1069,100.226
2640.0713,100.229
2641.0354,100.232
2641.9998,100.235
2642.9639,100.237
2643.9282,100.238
2644.8923,100.238
2645.8567,100.238
2646.8208,100.239
2647.7852,100.243
2648.7493,100.247
2649.7136,100.252
2650.6777,100.255
2651.6421,100.254
2652.6062,100.25
2653.5706,100.244
2654.5347,100.236
2655.4990,100.231
2656.4631,100.229
2657.4275,100.233
2658.3916,100.242
2659.3560,100.253
2660.3201,100.265
2661.2844,100.273
2662.2485,100.276
2663.2129,100.273
2664.1770,100.267
2665.1414,100.259
2666.1055,100.252
2667.0698,100.248
2668.0339,100.248
2668.9983,100.252
2669.9624,100.257
2670.9268,100.262
2671.8909,100.266
2672.8552,100.27
2673.8193,100.273
2674.7837,100.278
2675.7478,100.284
2676.7122,100.29
2677.6763,100.294
2678.6406,100.293
2679.6047,100.289
2680.5691,100.283
2681.5332,100.278
2682.4976,100.274
2683.4617,100.272
2684.4260,100.27
2685.3901,100.268
2686.3545,100.265
2687.3186,100.264
2688.2830,100.264
2689.2471,100.266
2690.2114,100.269
2691.1755,100.272
2692.1399,100.275
2693.1040,100.277
2694.0684,100.279
2695.0325,100.279
2695.9968,100.278
2696.9609,100.275
2697.9253,100.269
2698.8894,100.263
2699.8538,100.257
2700.8179,100.253
2701.7822,100.25
2702.7463,100.25
2703.7107,100.25
2704.6748,100.25
2705.6392,100.247
2706.6033,100.242
2707.5676,100.235
2708.5317,100.228
2709.4961,100.224
2710.4602,100.224
2711.4246,100.229
2712.3887,100.235
2713.3530,100.239
2714.3171,100.241
2715.2815,100.239
2716.2456,100.237
2717.2100,100.236
2718.1741,100.237
2719.1384,100.24
2720.1025,100.243
2721.0669,100.245
2722.0310,100.244
2722.9954,100.242
2723.9595,100.238
2724.9238,100.233
2725.8879,100.228
2726.8523,100.222
2727.8164,100.217
2728.7808,100.213
2729.7449,100.213
2730.7092,100.214
2731.6733,100.217
2732.6377,100.221
2733.6018,100.225
2734.5662,100.227
2735.5303,100.228
2736.4946,100.227
2737.4587,100.225
2738.4231,100.222
2739.3872,100.218
2740.3516,100.214
2741.3157,100.211
2742.2800,100.211
2743.2441,100.215
2744.2085,100.223
2745.1726,100.233
2746.1370,100.243
2747.1011,100.25
2748.0654,100.252
2749.0295,100.251
2749.9939,100.248
2750.9580,100.246
2751.9224,100.245
2752.8865,100.247
2753.8508,100.25
2754.8149,100.253
2755.7793,100.255
2756.7434,100.256
2757.7078,100.258
2758.6719,100.263
2759.6362,100.27
2760.6003,100.281
2761.5647,100.291
2762.5288,100.299
2763.4932,100.304
2764.4573,100.304
2765.4216,100.303
2766.3857,100.302
2767.3501,100.304
2768.3142,100.306
2769.2786,100.307
2770.2427,100.303
2771.2070,100.294
2772.1711,100.28
2773.1355,100.265
2774.0996,100.253
2775.0640,100.247
2776.0281,100.246
2776.9924,100.248
2777.9565,100.251
2778.9209,100.253
2779.8850,100.254
2780.8494,100.255
2781.8135,100.257
2782.7778,100.261
2783.7419,100.266
2784.7063,100.27
2785.6704,100.272
2786.6348,100.269
2787.5989,100.259
2788.5632,100.245
2789.5273,100.227
2790.4917,100.21
2791.4558,100.198
2792.4202,100.194
2793.3843,100.196
2794.3486,100.201
2795.3127,100.203
2796.2771,100.198
2797.2412,100.183
2798.2056,100.162
2799.1697,100.136
2800.1340,100.112
2801.0981,100.09
2802.0625,100.074
2803.0266,100.062
2803.9910,100.054
2804.9551,100.047
2805.9194,100.039
2806.8835,100.028
2807.8479,100.01
2808.8120,99.9871
2809.7764,99.9578
2810.7405,99.9247
2811.7048,99.8911
2812.6689,99.8599
2813.6333,99.8321
2814.5974,99.8061
2815.5618,99.7786
2816.5259,99.7463
2817.4902,99.7073
2818.4543,99.6614
2819.4187,99.6091
2820.3828,99.5502
2821.3472,99.4833
2822.3113,99.4064
2823.2756,99.319
2824.2397,99.2224
2825.2041,99.1196
2826.1682,99.0133
2827.1326,98.905
2828.0967,98.7945
2829.0610,98.6808
2830.0251,98.5638
2830.9895,98.4456
2831.9536,98.3298
2832.9180,98.2213
2833.8821,98.1246
2834.8464,98.0433
2835.8105,97.979
2836.7749,97.9319
2837.7390,97.9011
2838.7034,97.8858
2839.6675,97.8865
2840.6318,97.9053
2841.5959,97.9453
2842.5603,98.0091
2843.5244,98.0974
2844.4888,98.2087
2845.4529,98.3389
2846.4172,98.4825
2847.3813,98.6321
2848.3457,98.7791
2849.3098,98.9137
2850.2742,99.0269
2851.2383,99.1127
2852.2026,99.1701
2853.1667,99.2022
2854.1311,99.2143
2855.0952,99.2113
2856.0596,99.1966
2857.0237,99.1721
2857.9880,99.1399
2858.9521,99.1033
2859.9165,99.0657
2860.8806,99.0296
2861.8450,98.9955
2862.8091,98.9621
2863.7734,98.9288
2864.7375,98.8966
2865.7019,98.8684
2866.6660,98.8475
2867.6304,98.8347
2868.5945,98.8272
2869.5588,98.8187
2870.5229,98.8023
2871.4873,98.7737
2872.4514,98.7333
2873.4158,98.6865
2874.3799,98.6411
2875.3442,98.604
2876.3083,98.5785
2877.2727,98.5636
2878.2368,98.5553
2879.2012,98.5493
2880.1653,98.5423
2881.1296,98.5333
2882.0938,98.5222
2883.0581,98.5094
2884.0222,98.4953
2884.9866,98.4803
2885.9507,98.4651
2886.9150,98.451
2887.8792,98.4391
2888.8435,98.4296
2889.8076,98.4217
2890.7720,98.4133
2891.7361,98.4022
2892.7004,98.3868
2893.6646,98.3671
2894.6289,98.3456
2895.5930,98.3258
2896.5574,98.3111
2897.5215,98.3028
2898.4858,98.2985
2899.4500,98.2931
2900.4143,98.2813
2901.3784,98.2602
2902.3428,98.2314
2903.3069,98.2006
2904.2712,98.1749
2905.2354,98.1606
2906.1997,98.1612
2907.1638,98.1776
2908.1282,98.2079
2909.0923,98.2489
2910.0566,98.2968
2911.0208,98.3479
2911.9851,98.3994
2912.9492,98.4492
2913.9136,98.4955
2914.8777,98.5359
2915.8420,98.5672
2916.8062,98.5853
2917.7705,98.5871
2918.7346,98.5713
2919.6990,98.5394
2920.6631,98.4948
2921.6274,98.4411
2922.5916,98.3804
2923.5559,98.312
2924.5200,98.2326
2925.4844,98.1372
2926.4485,98.0214
2927.4128,97.8836
2928.3770,97.7267
2929.3413,97.5581
2930.3054,97.3882
2931.2698,97.2272
2932.2339,97.0827
2933.1982,96.9583
2934.1624,96.8544
2935.1267,96.7703
2936.0908,96.7055
2937.0552,96.6607
2938.0193,96.6368
2938.9836,96.6338
2939.9478,96.6505
2940.9121,96.6843
2941.8762,96.7321
2942.8406,96.7913
2943.8047,96.8599
2944.7690,96.9362
2945.7332,97.0187
2946.6975,97.1055
2947.6616,97.1946
2948.6260,97.2835
2949.5901,97.3698
2950.5544,97.4515
2951.5186,97.5275
2952.4829,97.5976
2953.4470,97.6621
2954.4114,97.7211
2955.3755,97.7742
2956.3398,97.8205
2957.3040,97.8597
2958.2683,97.8923
2959.2324,97.9195
2960.1968,97.9426
2961.1609,97.9618
2962.1252,97.9764
2963.0894,97.9855
2964.0537,97.9887
2965.0178,97.9868
2965.9822,97.9819
2966.9463,97.9771
2967.9106,97.9758
2968.8748,97.9811
2969.8391,97.9947
2970.8032,98.016
2971.7676,98.0422
2972.7317,98.0698
2973.6960,98.097
2974.6602,98.1254
2975.6245,98.159
2976.5886,98.2013
2977.5530,98.2523
2978.5171,98.3079
2979.4814,98.3619
2980.4456,98.41
2981.4099,98.453
2982.3740,98.4955
2983.3384,98.5432
2984.3025,98.5987
2985.2668,98.6603
2986.2310,98.7223
2987.1953,98.7776
2988.1594,98.8208
2989.1238,98.8492
2990.0879,98.8636
2991.0522,98.8678
2992.0164,98.8666
2992.9807,98.8651
2993.9448,98.8664
2994.9092,98.8711
2995.8733,98.8777
2996.8376,98.8841
2997.8018,98.8905
2998.7661,98.8992
2999.7302,98.9138
3000.6946,98.9367
3001.6587,98.9673
3002.6230,99.0024
3003.5872,99.0378
3004.5515,99.071
3005.5156,99.1024
3006.4800,99.1343
3007.4441,99.1697
3008.4084,99.21
3009.3726,99.2546
3010.3369,99.3016
3011.3010,99.3483
3012.2654,99.392
3013.2295,99.43
3014.1938,99.4603
3015.1580,99.4822
3016.1223,99.4966
3017.0864,99.5068
3018.0508,99.5171
3019.0149,99.531
3019.9792,99.5494
3020.9434,99.5701
3021.9077,99.5891
3022.8718,99.6029
3023.8362,99.6112
3024.8003,99.6178
3025.7646,99.6289
3026.7288,99.6499
3027.6931,99.682
3028.6572,99.721
3029.6216,99.7584
3030.5857,99.7848
3031.5500,99.7946
3032.5142,99.7885
3033.4785,99.7676
3034.4426,99.7463
3035.4070,99.7327
3036.3711,99.7294
3037.3354,99.7344
3038.2996,99.7422
3039.2639,99.7469
3040.2280,99.7448
3041.1924,99.7352
3042.1565,99.7202
3043.1208,99.7041
3044.0850,99.6908
3045.0493,99.6828
3046.0134,99.6804
3046.9778,99.6812
3047.9419,99.6817
3048.9063,99.6788
3049.8704,99.6704
3050.8347,99.6567
3051.7988,99.6395
3052.7632,99.6217
3053.7273,99.6062
3054.6917,99.5945
3055.6558,99.5868
3056.6201,99.5812
3057.5842,99.5746
3058.5486,99.5648
3059.5127,99.5519
3060.4771,99.5383
3061.4412,99.5274
3062.4055,99.5215
3063.3696,99.5203
3064.3340,99.5199
3065.2981,99.516
3066.2625,99.5053
3067.2266,99.4879
3068.1909,99.4666
3069.1550,99.4448
3070.1194,99.4255
3071.0835,99.4101
3072.0479,99.3988
3073.0120,99.3918
3073.9763,99.3893
3074.9404,99.3911
3075.9048,99.3961
3076.8689,99.4019
3077.8333,99.406
3078.7974,99.4065
3079.7617,99.4031
3080.7258,99.3971
3081.6902,99.3902
3082.6543,99.3838
3083.6187,99.378
3084.5828,99.3718
3085.5471,99.364
3086.5112,99.3535
3087.4756,99.3397
3088.4397,99.3235
3089.4041,99.307
3090.3682,99.2935
3091.3325,99.2861
3092.2966,99.2864
3093.2610,99.2928
3094.2251,99.3009
3095.1895,99.3054
3096.1536,99.303
3097.1179,99.2939
3098.0820,99.2811
3099.0464,99.2684
3100.0105,99.2571
3100.9749,99.2456
3101.9390,99.2309
3102.9033,99.2112
3103.8674,99.1876
3104.8318,99.163
3105.7959,99.1401
3106.7603,99.1201
3107.7244,99.1029
3108.6887,99.0878
3109.6528,99.0758
3110.6172,99.0684
3111.5813,99.0666
3112.5457,99.069
3113.5098,99.0723
3114.4741,99.0725
3115.4382,99.0676
3116.4026,99.0582
3117.3667,99.047
3118.3311,99.036
3119.2952,99.0254
3120.2595,99.0135
3121.2236,98.998
3122.1880,98.9779
3123.1521,98.9543
3124.1165,98.9294
3125.0806,98.9056
3126.0449,98.8846
3127.0090,98.8679
3127.9734,98.8566
3128.9375,98.8521
3129.9019,98.8544
3130.8660,98.8616
3131.8303,98.8696
3132.7944,98.8733
3133.7588,98.8688
3134.7229,98.8554
3135.6873,98.8358
3136.6514,98.8143
3137.6157,98.7947
3138.5798,98.7785
3139.5442,98.7647
3140.5083,98.7513
3141.4727,98.7361
3142.4368,98.7192
3143.4011,98.7022
3144.3652,98.6885
3145.3296,98.681
3146.2937,98.6806
3147.2581,98.6854
3148.2222,98.6909
3149.1865,98.6921
3150.1506,98.6851
3151.1150,98.6693
3152.0791,98.6462
3153.0435,98.6189
3154.0076,98.5906
3154.9719,98.5633
3155.9360,98.5381
3156.9004,98.5156
3157.8645,98.4955
3158.8289,98.4771
3159.7930,98.4591
3160.7573,98.4414
3161.7214,98.4256
3162.6858,98.4147
3163.6499,98.4112
3164.6143,98.4153
3165.5784,98.4229
3166.5427,98.4277
3167.5068,98.4239
3168.4712,98.4087
3169.4353,98.3037
3170.3997,98.2747
3171.3638,98.2473
3172.3281,98.2255
3173.2922,98.2109
3174.2566,98.2033
3175.2207,98.2006
3176.1851,98.1992
3177.1492,98.1949
3178.1135,98.1845
3179.0776,98.1676
3180.0420,98.1466
3181.0061,98.1254
3181.9705,98.1068
3182.9346,98.0918
3183.8989,98.0792
3184.8630,98.0681
3185.8274,98.0585
3186.7915,98.0512
3187.7559,98.0456
3188.7200,98.0385
3189.6843,98.0252
3190.6484,98.0016
3191.6128,97.968
3192.5769,97.9293
3193.5413,97.8933
3194.5054,97.8665
3195.4697,97.8511
3196.4338,97.8449
3197.3982,97.8432
3198.3623,97.8421
3199.3267,97.8407
3200.2908,97.84
3201.2551,97.8401
3202.2192,97.8386
3203.1836,97.8307
3204.1477,97.812
3205.1121,97.7818
3206.0762,97.7448
3207.0405,97.709
3208.0046,97.6825
3208.9690,97.6691
3209.9331,97.6666
3210.8975,97.6691
3211.8616,97.6698
3212.8259,97.665
3213.7900,97.6547
3214.7544,97.6417
3215.7185,97.629
3216.6829,97.6182
3217.6470,97.609
3218.6113,97.5999
3219.5754,97.5893
3220.5398,97.5761
3221.5039,97.5594
3222.4683,97.5392
3223.4324,97.5165
3224.3967,97.4943
3225.3608,97.4767
3226.3252,97.4686
3227.2893,97.4722
3228.2537,97.486
3229.2178,97.5037
3230.1821,97.5168
3231.1462,97.5181
3232.1106,97.5045
3233.0747,97.4779
3234.0391,97.4436
3235.0032,97.4075
3235.9675,97.3741
3236.9316,97.3456
3237.8960,97.3224
3238.8601,97.3044
3239.8245,97.2911
3240.7886,97.2818
3241.7529,97.2756
3242.7170,97.2714
3243.6814,97.2682
3244.6455,97.2643
3245.6099,97.2574
3246.5740,97.2451
3247.5383,97.2256
3248.5024,97.1994
3249.4668,97.1704
3250.4309,97.1446
3251.3953,97.128
3252.3594,97.1227
3253.3237,97.1258
3254.2878,97.1299
3255.2522,97.1267
3256.2163,97.1111
3257.1807,97.0828
3258.1448,97.0461
3259.1091,97.0074
3260.0732,96.9731
3261.0376,96.9475
3262.0017,96.9318
3262.9661,96.9244
3263.9302,96.9216
3264.8945,96.9191
3265.8586,96.9137
3266.8230,96.9035
3267.7871,96.8889
3268.7515,96.8708
3269.7156,96.8506
3270.6799,96.8296
3271.6440,96.8093
3272.6084,96.7912
3273.5725,96.7766
3274.5369,96.7657
3275.5010,96.7569
3276.4653,96.7476
3277.4294,96.7356
3278.3938,96.7204
3279.3579,96.7034
3280.3223,96.687
3281.2864,96.673
3282.2507,96.6615
3283.2148,96.6515
3284.1792,96.6412
3285.1433,96.6293
3286.1077,96.6156
3287.0718,96.6006
3288.0361,96.5859
3289.0002,96.5732
3289.9646,96.5637
3290.9287,96.5574
3291.8931,96.5521
3292.8572,96.5437
3293.8215,96.5284
3294.7856,96.5051
3295.7500,96.4761
3296.7141,96.4474
3297.6785,96.4256
3298.6426,96.4146
3299.6069,96.4137
3300.5710,96.4187
3301.5354,96.4241
3302.4995,96.427
3303.4639,96.4269
3304.4280,96.425
3305.3923,96.4208
3306.3564,96.4113
3307.3208,96.393
3308.2849,96.365
3309.2493,96.3316
3310.2134,96.3003
3311.1777,96.2779
3312.1418,96.2653
3313.1062,96.2568
3314.0703,96.2435
3315.0347,96.2194
3315.9988,96.1854
3316.9631,96.1495
3317.9272,96.1223
3318.8916,96.1113
3319.8557,96.1173
3320.8201,96.1343
3321.7842,96.1527
3322.7485,96.163
3323.7126,96.1601
3324.6770,96.1441
3325.6411,96.1193
3326.6055,96.0921
3327.5696,96.0675
3328.5339,96.0477
3329.4980,96.0321
3330.4624,96.0185
3331.4265,96.0058
3332.3909,95.9947
3333.3550,95.9883
3334.3193,95.9893
3335.2834,95.9992
3336.2478,96.0163
3337.2119,96.0368
3338.1763,96.0553
3339.1404,96.0663
3340.1047,96.0648
3341.0688,96.0481
3342.0332,96.0175
3342.9973,95.9783
3343.9617,95.9392
3344.9258,95.9088
3345.8901,95.8917
3346.8542,95.8872
3347.8186,95.8898
3348.7827,95.8916
3349.7471,95.8858
3350.7112,95.8692
3351.6755,95.8426
3352.6396,95.8103
3353.6040,95.7791
3354.5681,95.7561
3355.5325,95.7461
3356.4966,95.7494
3357.4609,95.7611
3358.4250,95.7727
3359.3894,95.7763
3360.3535,95.7684
3361.3179,95.7515
3362.2820,95.7329
3363.2463,95.7207
3364.2104,95.7205
3365.1748,95.7327
3366.1389,95.7525
3367.1033,95.7718
3368.0674,95.7826
3369.0317,95.7798
3369.9958,95.7639
3370.9602,95.7408
3371.9243,95.7198
3372.8887,95.7085
3373.8528,95.7094
3374.8171,95.7179
3375.7813,95.7248
3376.7456,95.7216
3377.7097,95.7056
3378.6741,95.6806
3379.6382,95.6546
3380.6025,95.6345
3381.5667,95.6232
3382.5310,95.6186
3383.4951,95.6159
3384.4595,95.6108
3385.4236,95.6016
3386.3879,95.5897
3387.3521,95.5783
3388.3164,95.5712
3389.2805,95.5709
3390.2449,95.5774
3391.2090,95.5877
3392.1733,95.596
3393.1375,95.5972
3394.1018,95.5891
3395.0659,95.574
3396.0303,95.5569
3396.9944,95.543
3397.9587,95.5345
3398.9229,95.5294
3399.8872,95.5232
3400.8513,95.5127
3401.8157,95.4985
3402.7798,95.4849
3403.7441,95.4776
3404.7083,95.4795
3405.6726,95.4887
3406.6367,95.4987
3407.6011,95.5016
3408.5652,95.4922
3409.5295,95.4705
3410.4937,95.4412
3411.4580,95.4109
3412.4221,95.3851
3413.3865,95.3664
3414.3506,95.355
3415.3149,95.3505
3416.2791,95.3534
3417.2434,95.364
3418.2075,95.3809
3419.1719,95.3998
3420.1360,95.4154
3421.1003,95.4244
3422.0645,95.4282
3423.0288,95.4317
3423.9929,95.4391
3424.9573,95.4515
3425.9214,95.4655
3426.8857,95.4759
3427.8499,95.4778
3428.8142,95.4701
3429.7783,95.4556
3430.7427,95.4396
3431.7068,95.4276
3432.6711,95.423
3433.6353,95.4262
3434.5996,95.4348
3435.5637,95.4457
3436.5281,95.4557
3437.4922,95.4635
3438.4565,95.4685
3439.4207,95.4703
3440.3850,95.4678
3441.3491,95.4608
3442.3135,95.4517
3443.2776,95.4466
3444.2419,95.4533
3445.2061,95.4765
3446.1704,95.5123
3447.1345,95.5489
3448.0989,95.5728
3449.0630,95.5776
3450.0273,95.5673
3450.9915,95.5533
3451.9558,95.5475
3452.9199,95.5558
3453.8843,95.5747
3454.8484,95.5944
3455.8127,95.6058
3456.7769,95.607
3457.7412,95.6045
3458.7053,95.6081
3459.6697,95.6247
3460.6338,95.6535
3461.5981,95.6874
3462.5623,95.7181
3463.5266,95.7412
3464.4907,95.7578
3465.4551,95.772
3466.4192,95.7868
3467.3835,95.801
3468.3477,95.811
3469.3120,95.8134
3470.2761,95.8086
3471.2405,95.801
3472.2046,95.7968
3473.1689,95.7996
3474.1331,95.8084
3475.0974,95.8189
3476.0615,95.8271
3477.0259,95.8334
3477.9900,95.8428
3478.9543,95.8612
3479.9185,95.8906
3480.8828,95.9256
3481.8469,95.9564
3482.8113,95.9756
3483.7754,95.9835
3484.7397,95.987
3485.7039,95.9954
3486.6682,96.014
3487.6323,96.0406
3488.5967,96.0669
3489.5608,96.0838
3490.5251,96.0879
3491.4893,96.0837
3492.4536,96.082
3493.4177,96.0934
3494.3821,96.1218
3495.3462,96.1603
3496.3105,96.1954
3497.2747,96.2159
3498.2390,96.2209
3499.2031,96.2217
3500.1675,96.2352
3501.1316,96.2714
3502.0959,96.3227
3503.0601,96.3667
3504.0244,96.3836
3504.9885,96.3709
3505.9529,96.344
3506.9170,96.3276
3507.8813,96.3431
3508.8455,96.3966
3509.8098,96.4739
3510.7739,96.5489
3511.7383,96.6001
3512.7024,96.621
3513.6667,96.6191
3514.6309,96.608
3515.5952,96.6006
3516.5593,96.6042
3517.5237,96.6212
3518.4878,96.6511
3519.4521,96.6931
3520.4163,96.745
3521.3806,96.8027
3522.3447,96.8599
3523.3091,96.9121
3524.2732,96.9609
3525.2375,97.0135
3526.2017,97.0757
3527.1660,97.1453
3528.1301,97.2114
3529.0945,97.2616
3530.0586,97.2908
3531.0229,97.3034
3531.9871,97.3098
3532.9514,97.3212
3533.9155,97.346
3534.8799,97.3871
3535.8440,97.4414
3536.8083,97.5026
3537.7725,97.564
3538.7368,97.6202
3539.7009,97.6681
3540.6653,97.7092
3541.6294,97.7536
3542.5938,97.8171
3543.5579,97.9096
3544.5222,98.0226
3545.4863,98.1303
3546.4507,98.2094
3547.4148,98.2546
3548.3792,98.2773
3549.3433,98.2955
3550.3076,98.3285
3551.2717,98.3889
3552.2361,98.4759
3553.2002,98.5758
3554.1646,98.6719
3555.1287,98.7548
3556.0930,98.8246
3557.0571,98.8887
3558.0215,98.9531
3558.9856,99.0138
3559.9500,99.0543
3560.9141,99.0564
3561.8784,99.0171
3562.8425,98.9624
3563.8069,98.9483
3564.7710,99.0334
3565.7354,99.2178
3566.6995,99.4122
3567.6638,99.5219
3568.6279,99.5418
3569.5923,99.5165
3570.5564,99.4753
3571.5208,99.4309
3572.4849,99.3997
3573.4492,99.4027
3574.4133,99.4513
3575.3777,99.5392
3576.3418,99.6468
3577.3062,99.7521
3578.2703,99.8281
3579.2346,99.866
3580.1987,99.852
3581.1631,99.7788
3582.1272,99.6548
3583.0916,99.5136
3584.0557,99.4175
3585.0200,99.4357
3585.9841,99.5843
3586.9485,99.78
3587.9126,99.9042
3588.8770,99.9175
3589.8411,99.8569
3590.8054,99.7692
3591.7695,99.6915
3592.7339,99.6568
3593.6980,99.6811
3594.6624,99.75
3595.6265,99.8309
3596.5908,99.9031
3597.5549,99.9681
3598.5193,100.035
3599.4834,100.102
3600.4478,100.148
3601.4119,100.149
3602.3762,100.092
3603.3403,99.9872
3604.3047,99.8638
3605.2688,99.762
3606.2332,99.715
3607.1973,99.7254
3608.1616,99.7661
3609.1257,99.8092
3610.0901,99.8482
3611.0542,99.8868
3612.0186,99.9195
3612.9829,99.9275
3613.9470,99.8951
3614.9114,99.8293
3615.8755,99.7669
3616.8398,99.7601
3617.8040,99.84
3618.7683,99.9798
3619.7324,100.109
3620.6968,100.174
3621.6609,100.154
3622.6252,100.039
3623.5894,99.8225
3624.5537,99.5394
3625.5178,99.2936
3626.4822,99.2395
3627.4463,99.4612
3628.4106,99.8268
3629.3748,100.095
3630.3391,100.187
3631.3032,100.17
3632.2676,100.103
3633.2317,100.017
3634.1960,99.9403
3635.1602,99.9007
3636.1245,99.9092
3637.0886,99.9564
3638.0530,100.021
3639.0171,100.082
3639.9814,100.12
3640.9456,100.116
3641.9099,100.05
3642.8740,99.908
3643.8384,99.7032
3644.8025,99.5045
3645.7668,99.4619
3646.7310,99.7657
3647.6953,100.427
3648.6594,101.02
3649.6238,101.092
3650.5879,100.775
3651.5522,100.396
3652.5164,100.073
3653.4807,99.8165
3654.4448,99.6525
3655.4092,99.6193
3656.3733,99.718
3657.3376,99.8928
3658.3018,100.072
3659.2661,100.209
3660.2302,100.296
3661.1946,100.339
3662.1587,100.344
3663.1230,100.298
3664.0872,100.18
3665.0515,99.9921
3666.0156,99.7883
3666.9800,99.6699
3667.9441,99.7241
3668.9084,99.914
3669.8726,100.068
3670.8369,100.047
3671.8010,99.8763
3672.7654,99.6902
3673.7295,99.6475
3674.6938,99.8217
3675.6580,100.113
3676.6223,100.348
3677.5864,100.458
3678.5508,100.472
3679.5149,100.42
3680.4792,100.32
3681.4434,100.183
3682.4077,100.014
3683.3718,99.8066
3684.3362,99.5674
3685.3003,99.346
3686.2646,99.2504
3687.2288,99.4037
3688.1931,99.8122
3689.1572,100.268
3690.1216,100.524
3691.0857,100.54
3692.0500,100.416
3693.0142,100.236
3693.9785,100.035
3694.9426,99.8288
3695.9070,99.6296
3696.8711,99.4552
3697.8354,99.334
3698.7996,99.303
3699.7639,99.3894
3700.7280,99.5775
3701.6924,99.7947
3702.6565,99.9475
3703.6208,99.9765
3704.5850,99.8727
3705.5493,99.6629
3706.5134,99.4052
3707.4778,99.1943
3708.4419,99.1468
3709.4063,99.3321
3710.3704,99.6728
3711.3347,99.9499
3712.2988,100.057
3713.2632,100.042
3714.2273,99.9706
3715.1917,99.8656
3716.1558,99.7388
3717.1201,99.6198
3718.0842,99.5534
3719.0486,99.5766
3720.0127,99.6966
3720.9771,99.8892
3721.9412,100.116
3722.9055,100.342
3723.8696,100.534
3724.8340,100.658
3725.7981,100.692
3726.7625,100.625
3727.7266,100.462
3728.6909,100.22
3729.6550,99.9432
3730.6194,99.7137
3731.5835,99.6595
3732.5479,99.9139
3733.5120,100.499
3734.4763,101.199
3735.4404,101.668
3736.4048,101.766
3737.3689,101.594
3738.3333,101.263
3739.2974,100.816
3740.2617,100.285
3741.2258,99.7636
3742.1902,99.4095
3743.1543,99.3517
3744.1187,99.5501
3745.0828,99.8091
3746.0471,99.9729
3747.0112,100.027
3747.9756,100.057
3748.9397,100.161
3749.9041,100.335
3750.8682,100.421
3751.8325,100.32
3752.7966,100.113
3753.7610,99.8895
3754.7251,99.6756
3755.6895,99.4909
3756.6536,99.3809
3757.6179,99.3812
3758.5820,99.4693
3759.5464,99.574
3760.5105,99.6323
3761.4749,99.6229
3762.4390,99.558
3763.4033,99.4675
3764.3674,99.3862
3765.3318,99.3412
3766.2959,99.3445
3767.2603,99.3932
3768.2244,99.4727
3769.1887,99.5583
3770.1528,99.6208
3771.1172,99.6371
3772.0813,99.5972
3773.0457,99.5022
3774.0098,99.3659
3774.9741,99.2227
3775.9382,99.1285
3776.9026,99.1362
3777.8667,99.2547
3778.8311,99.4287
3779.7952,99.5795
3780.7595,99.6624
3781.7236,99.6801
3782.6880,99.6584
3783.6521,99.6225
3784.6165,99.5869
3785.5806,99.5548
3786.5449,99.525
3787.5090,99.4958
3788.4734,99.4648
3789.4375,99.4278
3790.4019,99.3833
3791.3660,99.3396
3792.3303,99.3176
3793.2944,99.3409
3794.2588,99.4155
3795.2229,99.5154
3796.1873,99.5949
3797.1514,99.6249
3798.1157,99.6171
3799.0798,99.6087
3800.0442,99.6116
3801.0083,99.5836
3801.9727,99.4765
3802.9368,99.3004
3803.9011,99.1153
3804.8652,98.993
3805.8296,98.991
3806.7937,99.1192
3807.7581,99.319
3808.7222,99.4972
3809.6865,99.579
3810.6506,99.5364
3811.6150,99.3978
3812.5791,99.2468
3813.5435,99.1854
3814.5076,99.259
3815.4719,99.4062
3816.4360,99.5149
3817.4004,99.5317
3818.3645,99.4908
3819.3289,99.4555
3820.2930,99.4518
3821.2573,99.4603
3822.2214,99.4634
3823.1858,99.4651
3824.1499,99.4708
3825.1143,99.4817
3826.0784,99.5025
3827.0427,99.5396
3828.0068,99.5917
3828.9712,99.6455
3829.9353,99.68
3830.8997,99.6731
3831.8638,99.6074
3832.8281,99.4788
3833.7922,99.3067
3834.7566,99.1384
3835.7207,99.038
3836.6851,99.0533
3837.6492,99.1776
3838.6135,99.3522
3839.5776,99.5174
3840.5420,99.6512
3841.5061,99.7592
3842.4705,99.8489
3843.4346,99.9183
3844.3989,99.9523
3845.3630,99.9242
3846.3274,99.7995
3847.2915,99.5487
3848.2559,99.1717
3849.2200,98.7348
3850.1843,98.4058
3851.1484,98.4321
3852.1128,98.9342
3853.0769,99.6012
3854.0413,99.9689
3855.0054,100.015
3855.9697,99.9324
3856.9338,99.793
3857.8982,99.596
3858.8623,99.3618
3859.8267,99.1582
3860.7908,99.0752
3861.7551,99.1658
3862.7192,99.386
3863.6836,99.6067
3864.6477,99.71
3865.6121,99.6666
3866.5762,99.5273
3867.5405,99.3785
3868.5046,99.303
3869.4690,99.3429
3870.4331,99.4758
3871.3975,99.631
3872.3616,99.7386
3873.3259,99.7628
3874.2900,99.7007
3875.2544,99.5703
3876.2185,99.4074
3877.1829,99.2646
3878.1470,99.1994
3879.1113,99.2448
3880.0754,99.3803
3881.0398,99.5389
3882.0039,99.6526
3882.9683,99.6896
3883.9324,99.654
3884.8967,99.5647
3885.8608,99.4426
3886.8252,99.3101
3887.7893,99.1954
3888.7537,99.1411
3889.7178,99.1978
3890.6821,99.3842
3891.6462,99.6414
3892.6106,99.8546
3893.5747,99.9368
3894.5391,99.8686
3895.5032,99.6838
3896.4675,99.4486
3897.4316,99.2437
3898.3960,99.1331
3899.3601,99.1356
3900.3245,99.2271
3901.2886,99.3709
3902.2529,99.5352
3903.2170,99.6862
3904.1814,99.7911
3905.1455,99.8354
3906.1099,99.825
3907.0740,99.7747
3908.0383,99.701
3909.0024,99.621
3909.9668,99.548
3910.9309,99.4869
3911.8953,99.4353
3912.8594,99.3934
3913.8237,99.374
3914.7878,99.3996
3915.7522,99.4841
3916.7163,99.6097
3917.6807,99.7285
3918.6448,99.7945
3919.6091,99.7924
3920.5732,99.7382
3921.5376,99.6647
3922.5017,99.6051
3923.4661,99.5776
3924.4302,99.5766
3925.3945,99.5807
3926.3586,99.5706
3927.3230,99.5439
3928.2871,99.5178
3929.2515,99.5212
3930.2156,99.5748
3931.1799,99.6707
3932.1440,99.7727
3933.1084,99.8408
3934.0725,99.8535
3935.0369,99.8099
3936.0010,99.7223
3936.9653,99.6106
3937.9294,99.5009
3938.8938,99.4209
3939.8579,99.3934
3940.8223,99.4249
3941.7864,99.4985
3942.7507,99.58
3943.7148,99.6377
3944.6792,99.6589
3945.6433,99.6538
3946.6077,99.6455
3947.5718,99.6556
3948.5361,99.6887
3949.5002,99.7295
3950.4646,99.7547
3951.4287,99.7488
3952.3931,99.7123
3953.3572,99.6584
3954.3215,99.6059
3955.2856,99.571
3956.2500,99.5615
3957.2141,99.5769
3958.1785,99.6121
3959.1426,99.6599
3960.1069,99.7124
3961.0710,99.7599
3962.0354,99.7921
3962.9995,99.8019
3963.9639,99.7883
3964.9280,99.7567
3965.8923,99.7163
3966.8564,99.6771
3967.8208,99.647
3968.7849,99.6312
3969.7493,99.6328
3970.7134,99.6522
3971.6777,99.6866
3972.6418,99.7284
3973.6062,99.7661
3974.5703,99.7878
3975.5347,99.7871
3976.4988,99.7668
3977.4631,99.7376
3978.4272,99.712
3979.3916,99.6987
3980.3557,99.6986
3981.3201,99.7061
3982.2842,99.713
3983.2485,99.7134
3984.2126,99.7068
3985.1770,99.6971
3986.1411,99.6904
3987.1055,99.6912
3988.0696,99.7012
3989.0339,99.7183
3989.9980,99.7371
3990.9624,99.7516
3991.9265,99.7577
3992.8909,99.7557
3993.8550,99.7495
3994.8193,99.7452
3995.7834,99.7472
3996.7478,99.7558
3997.7119,99.7672
3998.6763,99.7752
3999.6404,99.7753
4000.6047,99.9298

##### Extended Information
[Comments]
Sample name
Comment
User
Division
Company,HANKYONG

[Detailed Information]
Creation date,4/24/2024 3:46 PM

Data array type,Linear data array
Horizontal axis,Wavenumber [cm-1]
Vertical axis,%T
Start,649.893 cm-1
End,4000.6 cm-1
Data interval,0.964233 cm-1
Data points,3476    

[Measurement Information]
Model Name,FT/IR-4700typeA
Serial Number,D056761788

Accessory,ATR PRO ONE
Accessory S/N,C174761809
Incident angle,45 deg

Measurement Date,4/24/2024 3:45 PM

Light Source,Standard
Detector,TGS
Accumulation,32
Resolution,4 cm-1
Zero Filling,On
Apodization,Cosine
Gain,Auto (4)
Aperture,Auto (7.1 mm)
Scanning Speed,Auto (2 mm/sec)
Filter,Auto (30000 Hz)

