TITLE,
DATA TYPE,INFRARED SPECTRUM
ORIGIN,JASCO
OWNER,
DATE,24/04/24
TIME,12:17:14
SPECTROMETER/DATA SYSTEM,
LOCALE,1033
RESOLUTION,
DELTAX,0.964233
XUNITS,1/CM
YUNITS,TRANSMITTANCE
FIRSTX,  649.8934
LASTX, 4000.6047
NPOINTS,    3476
FIRSTY,    96.17080
MAXY,   101.31479
MINY,    56.78060
XYDATA
649.8934,96.1708
650.8576,96.2396
651.8218,96.2832
652.7861,96.31
653.7503,96.3372
654.7145,96.3918
655.6788,96.4912
656.6430,96.6332
657.6072,96.8036
658.5715,96.994
659.5357,97.2083
660.4999,97.4476
661.4642,97.6875
662.4284,97.8731
663.3926,97.9366
664.3569,97.816
665.3211,97.4642
666.2853,96.8791
667.2496,96.1979
668.2138,95.7731
669.1780,95.9005
670.1423,96.4266
671.1065,96.9935
672.0707,97.4096
673.0350,97.6457
673.9992,97.7344
674.9634,97.7242
675.9277,97.6675
676.8919,97.614
677.8561,97.5995
678.8204,97.64
679.7846,97.7324
680.7488,97.8578
681.7131,97.9876
682.6773,98.0948
683.6415,98.168
684.6058,98.2178
685.5700,98.2677
686.5342,98.337
687.4985,98.4239
688.4627,98.5038
689.4269,98.5402
690.3912,98.5055
691.3554,98.4062
692.3196,98.3032
693.2839,98.2949
694.2481,98.4403
695.2123,98.7022
696.1766,98.9951
697.1408,99.2524
698.1050,99.4445
699.0693,99.5685
700.0335,99.6401
700.9977,99.6842
701.9620,99.7265
702.9262,99.786
703.8904,99.8725
704.8547,99.9866
705.8189,100.12
706.7831,100.257
707.7474,100.379
708.7116,100.474
709.6758,100.536
710.6401,100.57
711.6043,100.585
712.5685,100.586
713.5328,100.57
714.4970,100.524
715.4612,100.626
716.4255,100.473
717.3897,100.291
718.3539,100.115
719.3182,99.9902
720.2824,99.9457
721.2466,99.975
722.2109,100.039
723.1751,100.089
724.1393,100.092
725.1036,100.042
726.0678,99.9601
727.0320,99.8759
727.9963,99.8127
728.9605,99.7793
729.9247,99.7719
730.8890,99.7829
731.8532,99.8076
732.8174,99.8444
733.7817,99.9067
734.7459,99.9922
735.7101,100.068
736.6744,100.123
737.6386,100.147
738.6028,100.141
739.5671,100.113
740.5313,100.075
741.4955,100.042
742.4598,100.024
743.4240,100.025
744.3882,100.043
745.3525,100.068
746.3167,100.088
747.2809,100.091
748.2452,100.067
749.2094,100.015
750.1736,99.9404
751.1379,99.8535
752.1021,99.767
753.0663,99.692
754.0306,99.635
754.9948,99.597
755.9590,99.5737
756.9233,99.5577
757.8875,99.5407
758.8517,99.5161
759.8160,99.4807
760.7802,99.4361
761.7444,99.3873
762.7087,99.3407
763.6729,99.3019
764.6371,99.2743
765.6014,99.2597
766.5656,99.2591
767.5298,99.2729
768.4941,99.2992
769.4583,99.3324
770.4225,99.3636
771.3868,99.3835
772.3510,99.387
773.3152,99.3755
774.2795,99.3556
775.2437,99.3344
776.2079,99.3155
777.1722,99.297
778.1364,99.2746
779.1006,99.2451
780.0649,99.2091
781.0291,99.1707
781.9933,99.1348
782.9576,99.1041
783.9218,99.0783
784.8860,99.0531
785.8503,99.0217
786.8145,98.976
787.7787,98.9092
788.7430,98.8177
789.7072,98.7023
790.6714,98.5668
791.6357,98.4161
792.5999,98.2528
793.5641,98.0765
794.5284,97.8847
795.4926,97.6748
796.4568,97.4454
797.4211,97.1977
798.3853,96.9365
799.3495,96.6708
800.3138,96.4145
801.2780,96.1835
802.2422,95.992
803.2065,95.8473
804.1707,95.7488
805.1349,95.6896
806.0992,95.6615
807.0634,95.6584
808.0276,95.676
808.9919,95.7094
809.9561,95.7507
810.9203,95.7892
811.8846,95.8148
812.8488,95.8218
813.8130,95.81
814.7773,95.7841
815.7415,95.75
816.7057,95.7126
817.6700,95.6749
818.6342,95.6382
819.5984,95.603
820.5627,95.5697
821.5269,95.5388
822.4911,95.5116
823.4554,95.4902
824.4196,95.4773
825.3839,95.4755
826.3481,95.4858
827.3123,95.5069
828.2766,95.535
829.2408,95.5655
830.2050,95.5951
831.1693,95.6239
832.1335,95.656
833.0977,95.698
834.0620,95.7567
835.0262,95.8353
835.9904,95.932
836.9547,96.0404
837.9189,96.1517
838.8831,96.2575
839.8474,96.3519
840.8116,96.432
841.7758,96.4984
842.7401,96.5541
843.7043,96.604
844.6685,96.6525
845.6328,96.7001
846.5970,96.742
847.5612,96.7686
848.5255,96.7696
849.4897,96.7393
850.4539,96.681
851.4182,96.6056
852.3824,96.5274
853.3466,96.4572
854.3109,96.3991
855.2751,96.3504
856.2393,96.3054
857.2036,96.2593
858.1678,96.21
859.1320,96.1563
860.0963,96.0964
861.0605,96.0256
862.0247,95.9375
862.9890,95.8245
863.9532,95.6785
864.9174,95.4891
865.8817,95.2422
866.8459,94.9203
867.8101,94.5052
868.7744,93.985
869.7386,93.359
870.7028,92.6402
871.6671,91.8529
872.6313,91.0283
873.5955,90.2014
874.5598,89.4129
875.5240,88.7127
876.4882,88.1599
877.4525,87.8167
878.4167,87.7342
879.3809,87.9375
880.3452,88.4179
881.3094,89.1366
882.2736,90.0367
883.2379,91.0563
884.2021,92.1362
885.1663,93.2209
886.1306,94.2581
887.0948,95.2022
888.0590,96.0216
889.0233,96.705
889.9875,97.2615
890.9517,97.7116
891.9160,98.0754
892.8802,98.3644
893.8444,98.5806
894.8087,98.7225
895.7729,98.7909
896.7371,98.7912
897.7014,98.7315
898.6656,98.6205
899.6298,98.468
900.5941,98.2861
901.5583,98.0899
902.5225,97.8945
903.4868,97.7104
904.4510,97.5399
905.4152,97.3786
906.3795,97.2202
907.3437,97.0625
908.3079,96.9101
909.2722,96.7738
910.2364,96.6679
911.2006,96.6073
912.1649,96.6048
913.1291,96.6686
914.0933,96.8005
915.0576,96.9946
916.0218,97.238
916.9860,97.5152
917.9503,97.8119
918.9145,98.1182
919.8787,98.4287
920.8430,98.7406
921.8072,99.0515
922.7714,99.3577
923.7357,99.654
924.6999,99.9326
925.6641,100.183
926.6284,100.394
927.5926,100.553
928.5568,100.656
929.5211,100.704
930.4853,100.703
931.4495,100.665
932.4138,100.596
933.3780,100.502
934.3422,100.385
935.3065,100.282
936.2707,100.234
937.2349,100.177
938.1992,100.112
939.1634,100.04
940.1276,99.9574
941.0919,99.8617
942.0561,99.7551
943.0203,99.6416
943.9846,99.5244
944.9488,99.4023
945.9130,99.2704
946.8773,99.123
947.8415,98.9572
948.8057,98.7748
949.7700,98.581
950.7342,98.3808
951.6984,98.1774
952.6627,97.9705
953.6269,97.7579
954.5911,97.5363
955.5554,97.3025
956.5196,97.0545
957.4838,96.7926
958.4481,96.5205
959.4123,96.2452
960.3765,95.9754
961.3408,95.719
962.3050,95.4807
963.2692,95.2611
964.2335,95.0581
965.1977,94.8691
966.1619,94.6917
967.1262,94.5244
968.0904,94.3657
969.0546,94.2134
970.0189,94.0651
970.9831,93.9183
971.9473,93.7718
972.9116,93.6247
973.8758,93.4758
974.8400,93.3216
975.8043,93.1564
976.7685,92.9729
977.7327,92.7645
978.6970,92.5286
979.6612,92.2676
980.6254,91.9888
981.5897,91.7006
982.5539,91.409
983.5181,91.114
984.4824,90.81
985.4466,90.4891
986.4108,90.1455
987.3751,89.7783
988.3393,89.3912
989.3035,88.9889
990.2678,88.5733
991.2320,88.1415
992.1962,87.6869
993.1605,87.2031
994.1247,86.6867
995.0889,86.1389
996.0532,85.5637
997.0174,84.9636
997.9816,84.337
998.9459,83.6775
999.9101,82.9766
1000.8743,82.229
1001.8386,81.4358
1002.8028,80.6056
1003.7670,79.7502
1004.7313,78.8792
1005.6955,77.997
1006.6597,77.1029
1007.6240,76.1955
1008.5882,75.2773
1009.5524,74.3571
1010.5167,73.4488
1011.4809,72.5675
1012.4451,71.7247
1013.4094,70.9256
1014.3736,70.1675
1015.3378,69.4431
1016.3021,68.7446
1017.2663,68.0699
1018.2305,67.4229
1019.1948,66.8085
1020.1590,66.2218
1021.1232,65.64
1022.0875,65.0259
1023.0517,64.3455
1024.0160,63.5916
1024.9802,62.7979
1025.9445,62.0313
1026.9087,61.3628
1027.8729,60.8339
1028.8372,60.4364
1029.8014,60.1191
1030.7656,59.8152
1031.7299,59.4745
1032.6941,59.0813
1033.6583,58.6531
1034.6226,58.2252
1035.5868,57.8323
1036.5510,57.4983
1037.5153,57.2326
1038.4795,57.034
1039.4437,56.8958
1040.4080,56.8114
1041.3722,56.7806
1042.3364,56.8127
1043.3007,56.9269
1044.2649,57.1469
1045.2291,57.4952
1046.1934,57.9871
1047.1576,58.631
1048.1218,59.43
1049.0861,60.3826
1050.0503,61.4788
1051.0145,62.6929
1051.9788,63.9795
1052.9430,65.2785
1053.9072,66.53
1054.8715,67.6932
1055.8357,68.7565
1056.7999,69.7309
1057.7642,70.6266
1058.7284,71.426
1059.6926,72.0718
1060.6569,72.4825
1061.6211,72.5931
1062.5853,72.3985
1063.5496,71.9739
1064.5138,71.4535
1065.4780,70.9763
1066.4423,70.6254
1067.4065,70.3954
1068.3707,70.2056
1069.3350,69.9504
1070.2992,69.5559
1071.2634,69.0119
1072.2277,68.3663
1073.1919,67.6935
1074.1561,67.0586
1075.1204,66.499
1076.0846,66.0274
1077.0488,65.6447
1078.0131,65.3516
1078.9773,65.15
1079.9415,65.0382
1080.9058,65.0069
1081.8700,65.0403
1082.8342,65.1218
1083.7985,65.241
1084.7627,65.3972
1085.7269,65.5991
1086.6912,65.861
1087.6554,66.1967
1088.6196,66.6116
1089.5839,67.0966
1090.5481,67.6264
1091.5123,68.1649
1092.4766,68.675
1093.4408,69.1282
1094.4050,69.5095
1095.3693,69.8141
1096.3335,70.0401
1097.2977,70.1834
1098.2620,70.2367
1099.2262,70.194
1100.1904,70.0551
1101.1547,69.827
1102.1189,69.5219
1103.0831,69.1538
1104.0474,68.7368
1105.0116,68.2856
1105.9758,67.8182
1106.9401,67.3572
1107.9043,66.9294
1108.8685,66.5632
1109.8328,66.2862
1110.7970,66.1222
1111.7612,66.0893
1112.7255,66.1992
1113.6897,66.4566
1114.6539,66.8601
1115.6182,67.4046
1116.5824,68.0836
1117.5466,68.8913
1118.5109,69.8228
1119.4751,70.8726
1120.4393,72.0335
1121.4036,73.2954
1122.3678,74.6459
1123.3320,76.072
1124.2963,77.5617
1125.2605,79.1048
1126.2247,80.6916
1127.1890,82.3119
1128.1532,83.9524
1129.1174,85.5965
1130.0817,87.2231
1131.0459,88.8071
1132.0101,90.3205
1132.9744,91.7337
1133.9386,93.0182
1134.9028,94.1495
1135.8671,95.1097
1136.8313,95.8891
1137.7955,96.4865
1138.7598,96.9083
1139.7240,97.1677
1140.6882,97.2842
1141.6525,97.2826
1142.6167,97.1902
1143.5809,97.0337
1144.5452,96.8365
1145.5094,96.6173
1146.4736,96.3918
1147.4379,96.1745
1148.4021,95.98
1149.3663,95.8226
1150.3306,95.7135
1151.2948,95.6593
1152.2590,95.6621
1153.2233,95.7208
1154.1875,95.8339
1155.1517,95.9998
1156.1160,96.2169
1157.0802,96.4818
1158.0444,96.7882
1159.0087,97.1261
1159.9729,97.4689
1160.9371,97.7121
1161.9014,97.9331
1162.8656,98.1119
1163.8298,98.2331
1164.7941,98.2891
1165.7583,98.2808
1166.7225,98.2151
1167.6868,98.1008
1168.6510,97.9438
1169.6152,97.7459
1170.5795,97.506
1171.5437,97.2216
1172.5079,96.8901
1173.4722,96.509
1174.4364,96.0745
1175.4006,95.5827
1176.3649,95.0312
1177.3291,94.4221
1178.2933,93.7639
1179.2576,93.0707
1180.2218,92.3596
1181.1860,91.6463
1182.1503,90.9424
1183.1145,90.2548
1184.0787,89.5866
1185.0430,88.9396
1186.0072,88.3153
1186.9714,87.7147
1187.9357,87.1377
1188.8999,86.5819
1189.8641,86.0426
1190.8284,85.5137
1191.7926,84.989
1192.7568,84.4632
1193.7211,83.9323
1194.6853,83.3934
1195.6495,82.8441
1196.6138,82.2817
1197.5780,81.7036
1198.5422,81.108
1199.5065,80.546
1200.4707,79.9154
1201.4349,79.2817
1202.3992,78.6573
1203.3634,78.0548
1204.3276,77.4853
1205.2919,76.9566
1206.2561,76.4734
1207.2203,76.0382
1208.1846,75.653
1209.1488,75.3207
1210.1130,75.0453
1211.0773,74.8315
1212.0415,74.6835
1213.0057,74.6042
1213.9700,74.595
1214.9342,74.6566
1215.8984,74.7891
1216.8627,74.9918
1217.8269,75.2617
1218.7911,75.5908
1219.7554,75.9674
1220.7196,76.3789
1221.6838,76.8145
1222.6481,77.267
1223.6123,77.7316
1224.5765,78.2025
1225.5408,78.6715
1226.5050,79.128
1227.4692,79.5622
1228.4335,79.9679
1229.3977,80.3446
1230.3619,80.697
1231.3262,81.0333
1232.2904,81.3617
1233.2546,81.6868
1234.2189,82.004
1235.1831,82.2969
1236.1473,82.5412
1237.1116,82.7152
1238.0758,82.8155
1239.0400,82.8661
1240.0043,82.9147
1240.9685,83.0132
1241.9327,83.1929
1242.8970,83.4473
1243.8612,83.7351
1244.8254,84.0015
1245.7897,84.2055
1246.7539,84.3374
1247.7181,84.4163
1248.6824,84.4738
1249.6466,84.5339
1250.6108,84.6025
1251.5751,84.6688
1252.5393,84.7146
1253.5035,84.7247
1254.4678,84.693
1255.4320,84.6218
1256.3962,84.5199
1257.3605,84.3986
1258.3247,84.2688
1259.2889,84.1391
1260.2532,84.0146
1261.2174,83.8974
1262.1816,83.7887
1263.1459,83.692
1264.1101,83.6137
1265.0743,83.5623
1266.0386,83.5464
1267.0028,83.5733
1267.9670,83.6488
1268.9313,83.778
1269.8955,83.9644
1270.8597,84.209
1271.8240,84.5071
1272.7882,84.8491
1273.7524,85.2222
1274.7167,85.6151
1275.6809,86.0202
1276.6451,86.4345
1277.6094,86.8574
1278.5736,87.2882
1279.5378,87.7237
1280.5021,88.1577
1281.4663,88.5819
1282.4305,88.9879
1283.3948,89.3691
1284.3590,89.7221
1285.3232,90.0467
1286.2875,90.345
1287.2517,90.6194
1288.2159,90.8709
1289.1802,91.0976
1290.1444,91.2958
1291.1086,91.4613
1292.0729,91.5918
1293.0371,91.6883
1294.0013,91.7555
1294.9656,91.8001
1295.9298,91.829
1296.8940,91.8471
1297.8583,91.8559
1298.8225,91.8542
1299.7867,91.8388
1300.7510,91.8072
1301.7152,91.7579
1302.6794,91.6922
1303.6437,91.6141
1304.6079,91.5285
1305.5721,91.4392
1306.5364,91.3475
1307.5006,91.2515
1308.4648,91.1474
1309.4291,91.0335
1310.3933,90.9114
1311.3575,90.7868
1312.3218,90.665
1313.2860,90.5481
1314.2502,90.433
1315.2145,90.315
1316.1787,90.1938
1317.1429,90.0767
1318.1072,89.9771
1319.0714,89.9072
1320.0356,89.8702
1320.9999,89.8598
1321.9641,89.8662
1322.9283,89.8853
1323.8926,89.9222
1324.8568,89.9893
1325.8210,90.0999
1326.7853,90.2633
1327.7495,90.4826
1328.7137,90.757
1329.6780,91.0837
1330.6422,91.4575
1331.6064,91.8655
1332.5707,92.286
1333.5349,92.692
1334.4991,93.0625
1335.4634,93.3956
1336.4276,93.7167
1337.3918,94.0774
1338.3561,94.5346
1339.3203,95.1073
1340.2845,95.7498
1341.2488,96.3786
1342.2130,96.9295
1343.1772,97.3836
1344.1415,97.7543
1345.1057,98.0646
1346.0699,98.3335
1347.0342,98.574
1347.9984,98.7925
1348.9626,98.9896
1349.9269,99.1607
1350.8911,99.2994
1351.8553,99.4022
1352.8196,99.472
1353.7838,99.5165
1354.7480,99.5424
1355.7123,99.5477
1356.6765,99.5216
1357.6407,99.4504
1358.6050,99.325
1359.5692,99.1466
1360.5334,98.9323
1361.4977,98.7159
1362.4619,98.5287
1363.4261,98.3692
1364.3904,98.2051
1365.3546,98.0068
1366.3188,97.7696
1367.2831,97.5102
1368.2473,97.2532
1369.2115,97.0197
1370.1758,96.8213
1371.1400,96.6634
1372.1042,96.5562
1373.0685,96.5217
1374.0327,96.5828
1374.9969,96.7366
1375.9612,96.9461
1376.9254,97.1697
1377.8896,97.3933
1378.8539,97.6282
1379.8181,97.8873
1380.7823,98.1647
1381.7466,98.4375
1382.7108,98.687
1383.6750,98.9193
1384.6393,99.1674
1385.6035,99.4711
1386.5677,99.8346
1387.5320,100.185
1388.4962,100.401
1389.4604,100.399
1390.4247,100.195
1391.3889,99.8647
1392.3531,99.5145
1393.3174,99.2559
1394.2816,99.1864
1395.2458,99.2575
1396.2101,99.4603
1397.1743,99.6646
1398.1385,99.742
1399.1028,99.641
1400.0670,99.3799
1401.0313,99.0072
1401.9955,98.5694
1402.9597,98.0981
1403.9240,97.613
1404.8882,97.1272
1405.8524,96.6468
1406.8167,96.1666
1407.7809,95.6729
1408.7451,95.1506
1409.7094,94.5875
1410.6736,93.9779
1411.6378,93.3279
1412.6021,92.6554
1413.5663,91.9815
1414.5305,91.3156
1415.4948,90.6476
1416.4590,89.9566
1417.4232,89.2458
1418.3875,88.5668
1419.3517,87.9766
1420.3159,87.4766
1421.2802,87.045
1422.2444,86.6896
1423.2086,86.4396
1424.1729,86.3123
1425.1371,86.2993
1426.1013,86.3822
1427.0656,86.5581
1428.0298,86.845
1428.9940,87.256
1429.9583,87.7605
1430.9225,88.2815
1431.8867,88.7472
1432.8510,89.1376
1433.8152,89.4741
1434.7794,89.7753
1435.7437,90.0148
1436.7079,90.1038
1437.6721,89.9322
1438.6364,89.4599
1439.6006,88.743
1440.5648,87.8691
1441.5291,86.9041
1442.4933,85.886
1443.4575,84.8398
1444.4218,83.7854
1445.3860,82.7387
1446.3502,81.7167
1447.3145,80.7496
1448.2787,79.8809
1449.2429,79.1461
1450.2072,78.5521
1451.1714,78.0853
1452.1356,77.7293
1453.0999,77.4658
1454.0641,77.2647
1455.0283,77.1034
1455.9926,77.0444
1456.9568,77.2431
1457.9210,77.6444
1458.8853,77.9326
1459.8495,77.987
1460.8137,77.9373
1461.7780,77.9615
1462.7422,78.2164
1463.7064,78.8321
1464.6707,79.8388
1465.6349,81.0696
1466.5991,82.2579
1467.5634,83.2692
1468.5276,84.153
1469.4918,85.0358
1470.4561,86.0412
1471.4203,87.2685
1472.3845,88.7435
1473.3488,90.3021
1474.3130,91.6306
1475.2772,92.5454
1476.2415,93.088
1477.2057,93.3763
1478.1699,93.4964
1479.1342,93.4916
1480.0984,93.3822
1481.0626,93.1789
1482.0269,92.8876
1482.9911,92.5125
1483.9553,92.0583
1484.9196,91.5265
1485.8838,90.9057
1486.8480,90.179
1487.8123,89.3708
1488.7765,88.5945
1489.7407,87.9724
1490.7050,87.487
1491.6692,87.0326
1492.6334,86.5458
1493.5977,86.0106
1494.5619,85.4128
1495.5261,84.7387
1496.4904,84.0195
1497.4546,83.3475
1498.4188,82.7872
1499.3831,82.3079
1500.3473,81.8642
1501.3115,81.4645
1502.2758,81.1377
1503.2400,80.8692
1504.2042,80.5485
1505.1685,79.9645
1506.1327,78.987
1507.0969,77.9374
1508.0612,77.2881
1509.0254,76.9376
1509.9896,76.616
1510.9539,76.2649
1511.9181,75.9361
1512.8823,75.7103
1513.8466,75.688
1514.8108,75.9732
1515.7750,76.6173
1516.7393,77.5776
1517.7035,78.7758
1518.6677,80.2196
1519.6320,82.0328
1520.5962,84.2925
1521.5604,86.809
1522.5247,89.1833
1523.4889,91.1551
1524.4531,92.778
1525.4174,94.2465
1526.3816,95.6531
1527.3458,96.9247
1528.3101,97.9437
1529.2743,98.6779
1530.2385,99.1978
1531.2028,99.6198
1532.1670,100.042
1533.1312,100.483
1534.0955,100.87
1535.0597,101.129
1536.0239,101.266
1536.9882,101.315
1537.9524,101.239
1538.9166,100.924
1539.8809,100.389
1540.8451,100.021
1541.8093,100.094
1542.7736,100.35
1543.7378,100.531
1544.7020,100.594
1545.6663,100.558
1546.6305,100.502
1547.5947,100.379
1548.5590,100.22
1549.5232,100.049
1550.4874,99.8726
1551.4517,99.6801
1552.4159,99.4671
1553.3801,99.2553
1554.3444,99.0835
1555.3086,98.9682
1556.2728,98.8748
1557.2371,98.7791
1558.2013,98.8076
1559.1655,98.9893
1560.1298,98.9308
1561.0940,98.4528
1562.0582,97.7663
1563.0225,97.0971
1563.9867,96.5477
1564.9509,96.1248
1565.9152,95.7803
1566.8794,95.442
1567.8436,95.0468
1568.8079,94.5763
1569.7721,94.0609
1570.7363,93.5463
1571.7006,93.0629
1572.6648,92.6058
1573.6290,92.1169
1574.5933,91.4993
1575.5575,90.7089
1576.5217,89.8452
1577.4860,89.0513
1578.4502,88.3513
1579.4144,87.692
1580.3787,87.0312
1581.3429,86.3489
1582.3071,85.6411
1583.2714,84.9223
1584.2356,84.2165
1585.1998,83.5389
1586.1641,82.8898
1587.1283,82.2667
1588.0925,81.6758
1589.0568,81.1306
1590.0210,80.641
1590.9852,80.2075
1591.9495,79.8256
1592.9137,79.4956
1593.8779,79.2237
1594.8422,79.0132
1595.8064,78.8551
1596.7706,78.7286
1597.7349,78.613
1598.6991,78.4989
1599.6633,78.3915
1600.6276,78.3068
1601.5918,78.2628
1602.5560,78.2695
1603.5203,78.3221
1604.4845,78.4057
1605.4487,78.5094
1606.4130,78.6383
1607.3772,78.8151
1608.3414,79.0627
1609.3057,79.3765
1610.2699,79.717
1611.2341,80.0427
1612.1984,80.3476
1613.1626,80.6677
1614.1268,81.0705
1615.0911,81.6404
1616.0553,82.4105
1617.0195,83.2492
1617.9838,83.927
1618.9480,84.3584
1619.9122,84.646
1620.8765,84.9383
1621.8407,85.327
1622.8049,85.8155
1623.7692,86.3292
1624.7334,86.7743
1625.6976,87.1146
1626.6619,87.3821
1627.6261,87.6182
1628.5903,87.8298
1629.5546,88.0016
1630.5188,88.1347
1631.4830,88.2533
1632.4473,88.371
1633.4115,88.462
1634.3757,88.4922
1635.3400,88.5032
1636.3042,88.5713
1637.2684,88.6459
1638.2327,88.63
1639.1969,88.5289
1640.1611,88.4065
1641.1254,88.3126
1642.0896,88.2612
1643.0538,88.2245
1644.0181,88.1327
1644.9823,87.9144
1645.9465,87.5944
1646.9108,87.3192
1647.8750,87.1992
1648.8392,87.2383
1649.8035,87.4107
1650.7677,87.6627
1651.7319,87.8879
1652.6962,88.0182
1653.6604,88.0729
1654.6246,87.9584
1655.5889,87.6112
1656.5531,87.1802
1657.5173,86.8325
1658.4816,86.6318
1659.4458,86.5546
1660.4100,86.5425
1661.3743,86.5523
1662.3385,86.5688
1663.3027,86.577
1664.2670,86.5587
1665.2312,86.5145
1666.1954,86.4551
1667.1597,86.3789
1668.1239,86.2839
1669.0881,86.2003
1670.0524,86.1764
1671.0166,86.2198
1671.9808,86.3039
1672.9451,86.4149
1673.9093,86.5454
1674.8735,86.6601
1675.8378,86.6945
1676.8020,86.602
1677.7662,86.4073
1678.7305,86.1991
1679.6947,86.0683
1680.6589,86.0551
1681.6232,86.1398
1682.5874,86.2848
1683.5516,86.4764
1684.5159,86.6527
1685.4801,86.6754
1686.4443,86.5138
1687.4086,86.276
1688.3728,86.0784
1689.3370,85.9763
1690.3013,85.9689
1691.2655,86.0233
1692.2297,86.0906
1693.1940,86.1142
1694.1582,86.0422
1695.1224,85.8576
1696.0867,85.6189
1697.0509,85.4588
1698.0151,85.494
1698.9794,85.6933
1699.9436,85.8667
1700.9078,85.8336
1701.8721,85.5747
1702.8363,85.2089
1703.8005,84.8842
1704.7648,84.7001
1705.7290,84.6775
1706.6932,84.7621
1707.6575,84.8651
1708.6217,84.9256
1709.5859,84.9401
1710.5502,84.9396
1711.5144,84.9507
1712.4786,84.9788
1713.4429,85.0155
1714.4071,85.0756
1715.3713,85.2531
1716.3356,85.7082
1717.2998,86.4438
1718.2640,87.1653
1719.2283,87.6132
1720.1925,87.8117
1721.1567,87.9269
1722.1210,88.0939
1723.0852,88.3619
1724.0494,88.7057
1725.0137,89.0615
1725.9779,89.371
1726.9421,89.6109
1727.9064,89.7982
1728.8706,89.9728
1729.8348,90.1784
1730.7991,90.4541
1731.7633,90.8404
1732.7275,91.3668
1733.6918,91.9713
1734.6560,92.4668
1735.6202,92.7216
1736.5845,92.7975
1737.5487,92.8477
1738.5129,92.9826
1739.4772,93.2242
1740.4414,93.5221
1741.4056,93.7992
1742.3699,94.0054
1743.3341,94.1446
1744.2983,94.2545
1745.2626,94.3722
1746.2268,94.5204
1747.1910,94.7236
1748.1553,95.0273
1749.1195,95.4721
1750.0837,96.0154
1751.0480,96.517
1752.0122,96.8592
1752.9764,97.0364
1753.9407,97.1204
1754.9049,97.1866
1755.8691,97.2757
1756.8334,97.3926
1757.7976,97.5243
1758.7618,97.6612
1759.7261,97.8071
1760.6903,97.971
1761.6545,98.1498
1762.6188,98.3208
1763.5830,98.4584
1764.5472,98.5576
1765.5115,98.6342
1766.4757,98.7051
1767.4399,98.772
1768.4042,98.8229
1769.3684,98.8492
1770.3326,98.8707
1771.2969,98.9389
1772.2611,99.0868
1773.2253,99.2686
1774.1896,99.3992
1775.1538,99.4475
1776.1180,99.4498
1777.0823,99.4565
1778.0465,99.4939
1779.0107,99.5614
1779.9750,99.6479
1780.9392,99.7452
1781.9034,99.8509
1782.8677,99.9614
1783.8319,100.064
1784.7961,100.137
1785.7604,100.165
1786.7246,100.156
1787.6888,100.133
1788.6531,100.117
1789.6173,100.109
1790.5815,100.101
1791.5458,100.097
1792.5100,100.109
1793.4742,100.118
1794.4385,100.098
1795.4027,100.056
1796.3669,100.026
1797.3312,100.031
1798.2954,100.069
1799.2596,100.125
1800.2239,100.19
1801.1881,100.256
1802.1523,100.314
1803.1166,100.353
1804.0808,100.371
1805.0450,100.367
1806.0093,100.346
1806.9735,100.31
1807.9377,100.265
1808.9020,100.227
1809.8662,100.216
1810.8304,100.241
1811.7947,100.294
1812.7589,100.355
1813.7231,100.405
1814.6874,100.439
1815.6516,100.457
1816.6158,100.458
1817.5801,100.444
1818.5443,100.417
1819.5085,100.383
1820.4728,100.35
1821.4370,100.323
1822.4012,100.303
1823.3655,100.306
1824.3297,100.32
1825.2939,100.315
1826.2582,100.289
1827.2224,100.254
1828.1866,100.235
1829.1509,100.261
1830.1151,100.335
1831.0793,100.42
1832.0436,100.473
1833.0078,100.482
1833.9720,100.465
1834.9363,100.445
1835.9005,100.436
1836.8647,100.438
1837.8290,100.447
1838.7932,100.466
1839.7574,100.5
1840.7217,100.55
1841.6859,100.6
1842.6501,100.626
1843.6144,100.62
1844.5786,100.598
1845.5428,100.57
1846.5071,100.54
1847.4713,100.522
1848.4355,100.53
1849.3998,100.567
1850.3640,100.62
1851.3282,100.668
1852.2925,100.695
1853.2567,100.701
1854.2209,100.692
1855.1852,100.675
1856.1494,100.656
1857.1136,100.637
1858.0779,100.621
1859.0421,100.613
1860.0063,100.614
1860.9706,100.616
1861.9348,100.608
1862.8990,100.579
1863.8633,100.525
1864.8275,100.45
1865.7917,100.362
1866.7560,100.288
1867.7202,100.27
1868.6844,100.339
1869.6487,100.467
1870.6129,100.587
1871.5771,100.658
1872.5414,100.684
1873.5056,100.691
1874.4698,100.694
1875.4341,100.698
1876.3983,100.701
1877.3625,100.699
1878.3268,100.693
1879.2910,100.685
1880.2552,100.676
1881.2195,100.663
1882.1837,100.646
1883.1479,100.624
1884.1122,100.599
1885.0764,100.576
1886.0406,100.558
1887.0049,100.548
1887.9691,100.544
1888.9333,100.547
1889.8976,100.549
1890.8618,100.542
1891.8260,100.521
1892.7903,100.493
1893.7545,100.47
1894.7188,100.464
1895.6830,100.479
1896.6472,100.509
1897.6115,100.54
1898.5757,100.558
1899.5399,100.56
1900.5042,100.547
1901.4684,100.528
1902.4326,100.506
1903.3969,100.482
1904.3611,100.45
1905.3253,100.407
1906.2896,100.355
1907.2538,100.304
1908.2180,100.268
1909.1823,100.258
1910.1465,100.273
1911.1107,100.298
1912.0750,100.318
1913.0392,100.33
1914.0034,100.336
1914.9677,100.339
1915.9319,100.34
1916.8961,100.331
1917.8604,100.305
1918.8246,100.256
1919.7888,100.189
1920.7531,100.122
1921.7173,100.079
1922.6815,100.077
1923.6458,100.114
1924.6100,100.172
1925.5742,100.227
1926.5385,100.264
1927.5027,100.282
1928.4669,100.287
1929.4312,100.287
1930.3954,100.286
1931.3596,100.285
1932.3239,100.288
1933.2881,100.295
1934.2523,100.307
1935.2166,100.32
1936.1808,100.33
1937.1450,100.33
1938.1093,100.317
1939.0735,100.292
1940.0377,100.258
1941.0020,100.223
1941.9662,100.198
1942.9304,100.192
1943.8947,100.205
1944.8589,100.228
1945.8231,100.257
1946.7874,100.289
1947.7516,100.321
1948.7158,100.349
1949.6801,100.37
1950.6443,100.379
1951.6085,100.379
1952.5728,100.376
1953.5370,100.376
1954.5012,100.382
1955.4655,100.394
1956.4297,100.407
1957.3939,100.418
1958.3582,100.426
1959.3224,100.431
1960.2866,100.433
1961.2509,100.429
1962.2151,100.417
1963.1793,100.396
1964.1436,100.37
1965.1078,100.348
1966.0720,100.342
1967.0363,100.359
1968.0005,100.397
1968.9647,100.442
1969.9290,100.483
1970.8932,100.509
1971.8574,100.523
1972.8217,100.528
1973.7859,100.529
1974.7501,100.532
1975.7144,100.536
1976.6786,100.54
1977.6428,100.543
1978.6071,100.545
1979.5713,100.546
1980.5355,100.548
1981.4998,100.55
1982.4640,100.55
1983.4282,100.547
1984.3925,100.539
1985.3567,100.526
1986.3209,100.507
1987.2852,100.485
1988.2494,100.462
1989.2136,100.44
1990.1779,100.426
1991.1421,100.425
1992.1063,100.44
1993.0706,100.467
1994.0348,100.496
1994.9990,100.518
1995.9633,100.53
1996.9275,100.533
1997.8917,100.53
1998.8560,100.528
1999.8202,100.528
2000.7844,100.532
2001.7487,100.538
2002.7129,100.541
2003.6771,100.539
2004.6414,100.532
2005.6056,100.521
2006.5698,100.51
2007.5341,100.501
2008.4983,100.498
2009.4625,100.5
2010.4268,100.503
2011.3910,100.503
2012.3552,100.494
2013.3195,100.474
2014.2837,100.446
2015.2479,100.416
2016.2122,100.394
2017.1764,100.386
2018.1406,100.395
2019.1049,100.413
2020.0691,100.431
2021.0333,100.443
2021.9976,100.448
2022.9618,100.446
2023.9260,100.443
2024.8903,100.44
2025.8545,100.439
2026.8187,100.438
2027.7830,100.437
2028.7472,100.434
2029.7114,100.429
2030.6757,100.423
2031.6399,100.418
2032.6041,100.414
2033.5684,100.412
2034.5326,100.411
2035.4968,100.409
2036.4611,100.403
2037.4253,100.392
2038.3895,100.375
2039.3538,100.354
2040.3180,100.335
2041.2822,100.324
2042.2465,100.321
2043.2107,100.325
2044.1749,100.332
2045.1392,100.336
2046.1034,100.335
2047.0676,100.33
2048.0320,100.323
2048.9961,100.316
2049.9604,100.309
2050.9246,100.304
2051.8889,100.301
2052.8530,100.298
2053.8174,100.295
2054.7815,100.292
2055.7458,100.287
2056.7100,100.281
2057.6743,100.274
2058.6384,100.265
2059.6028,100.253
2060.5669,100.237
2061.5313,100.218
2062.4954,100.199
2063.4597,100.186
2064.4238,100.183
2065.3882,100.191
2066.3523,100.207
2067.3167,100.226
2068.2808,100.242
2069.2451,100.251
2070.2092,100.253
2071.1736,100.249
2072.1377,100.244
2073.1021,100.239
2074.0662,100.235
2075.0305,100.234
2075.9946,100.233
2076.9590,100.233
2077.9231,100.233
2078.8875,100.232
2079.8516,100.23
2080.8159,100.228
2081.7800,100.225
2082.7444,100.22
2083.7085,100.215
2084.6729,100.21
2085.6370,100.205
2086.6013,100.202
2087.5654,100.199
2088.5298,100.197
2089.4939,100.196
2090.4583,100.194
2091.4224,100.191
2092.3867,100.19
2093.3508,100.188
2094.3152,100.188
2095.2793,100.188
2096.2437,100.188
2097.2078,100.187
2098.1721,100.185
2099.1362,100.182
2100.1006,100.176
2101.0647,100.17
2102.0291,100.163
2102.9932,100.156
2103.9575,100.15
2104.9216,100.147
2105.8860,100.145
2106.8501,100.143
2107.8145,100.14
2108.7786,100.135
2109.7429,100.127
2110.7070,100.118
2111.6714,100.107
2112.6355,100.098
2113.5999,100.091
2114.5640,100.088
2115.5283,100.089
2116.4924,100.092
2117.4568,100.094
2118.4209,100.094
2119.3853,100.091
2120.3494,100.087
2121.3137,100.081
2122.2778,100.077
2123.2422,100.075
2124.2063,100.075
2125.1707,100.074
2126.1348,100.074
2127.0991,100.074
2128.0632,100.074
2129.0276,100.074
2129.9917,100.075
2130.9561,100.074
2131.9202,100.071
2132.8845,100.066
2133.8486,100.06
2134.8130,100.055
2135.7771,100.054
2136.7415,100.058
2137.7056,100.067
2138.6699,100.079
2139.6340,100.089
2140.5984,100.097
2141.5625,100.102
2142.5269,100.104
2143.4910,100.106
2144.4553,100.109
2145.4194,100.112
2146.3838,100.117
2147.3479,100.122
2148.3123,100.125
2149.2764,100.126
2150.2407,100.126
2151.2048,100.124
2152.1692,100.122
2153.1333,100.123
2154.0977,100.125
2155.0618,100.129
2156.0261,100.134
2156.9902,100.138
2157.9546,100.14
2158.9187,100.142
2159.8831,100.144
2160.8472,100.147
2161.8115,100.152
2162.7756,100.157
2163.7400,100.163
2164.7041,100.168
2165.6685,100.171
2166.6326,100.173
2167.5969,100.174
2168.5610,100.176
2169.5254,100.179
2170.4895,100.182
2171.4539,100.185
2172.4180,100.188
2173.3823,100.19
2174.3464,100.191
2175.3108,100.191
2176.2749,100.193
2177.2393,100.196
2178.2034,100.201
2179.1677,100.204
2180.1318,100.206
2181.0962,100.203
2182.0603,100.198
2183.0247,100.192
2183.9888,100.188
2184.9531,100.188
2185.9172,100.192
2186.8816,100.2
2187.8457,100.209
2188.8101,100.218
2189.7742,100.224
2190.7385,100.228
2191.7026,100.23
2192.6670,100.23
2193.6311,100.229
2194.5955,100.228
2195.5596,100.225
2196.5239,100.223
2197.4880,100.221
2198.4524,100.221
2199.4165,100.222
2200.3809,100.224
2201.3450,100.225
2202.3093,100.226
2203.2734,100.225
2204.2378,100.223
2205.2019,100.221
2206.1663,100.22
2207.1304,100.218
2208.0947,100.216
2209.0588,100.214
2210.0232,100.209
2210.9873,100.203
2211.9517,100.196
2212.9158,100.188
2213.8801,100.18
2214.8442,100.174
2215.8086,100.169
2216.7727,100.166
2217.7371,100.163
2218.7012,100.16
2219.6655,100.156
2220.6296,100.151
2221.5940,100.147
2222.5581,100.143
2223.5225,100.141
2224.4866,100.139
2225.4509,100.135
2226.4150,100.128
2227.3794,100.119
2228.3435,100.107
2229.3079,100.094
2230.2720,100.081
2231.2363,100.068
2232.2004,100.056
2233.1648,100.046
2234.1289,100.038
2235.0933,100.032
2236.0574,100.029
2237.0217,100.025
2237.9858,100.019
2238.9502,100.01
2239.9143,99.9983
2240.8787,99.9832
2241.8428,99.9663
2242.8071,99.9487
2243.7712,99.9311
2244.7356,99.9144
2245.6997,99.8991
2246.6641,99.8856
2247.6282,99.8736
2248.5925,99.8622
2249.5566,99.8502
2250.5210,99.8369
2251.4851,99.8225
2252.4495,99.8076
2253.4136,99.7929
2254.3779,99.7783
2255.3420,99.7631
2256.3064,99.7467
2257.2705,99.7292
2258.2349,99.7123
2259.1990,99.6979
2260.1633,99.6877
2261.1274,99.6817
2262.0918,99.6787
2263.0559,99.6768
2264.0203,99.6748
2264.9844,99.6722
2265.9487,99.669
2266.9128,99.6648
2267.8772,99.659
2268.8413,99.651
2269.8057,99.641
2270.7698,99.6301
2271.7341,99.6201
2272.6982,99.6126
2273.6626,99.6088
2274.6267,99.6089
2275.5911,99.613
2276.5552,99.6212
2277.5195,99.6332
2278.4836,99.6484
2279.4480,99.6649
2280.4121,99.6796
2281.3765,99.6887
2282.3406,99.6885
2283.3049,99.6765
2284.2690,99.6518
2285.2334,99.6161
2286.1975,99.5731
2287.1619,99.527
2288.1260,99.4813
2289.0903,99.4369
2290.0544,99.393
2291.0188,99.3488
2291.9829,99.3053
2292.9473,99.266
2293.9114,99.2351
2294.8757,99.215
2295.8398,99.2049
2296.8042,99.2022
2297.7683,99.2051
2298.7327,99.2152
2299.6968,99.2371
2300.6611,99.2747
2301.6252,99.3274
2302.5896,99.3873
2303.5537,99.4409
2304.5181,99.4752
2305.4822,99.484
2306.4465,99.4735
2307.4106,99.4615
2308.3750,99.4712
2309.3391,99.5203
2310.3035,99.6115
2311.2676,99.7305
2312.2319,99.8527
2313.1960,99.9562
2314.1604,100.033
2315.1245,100.092
2316.0889,100.152
2317.0530,100.23
2318.0173,100.331
2318.9814,100.439
2319.9458,100.522
2320.9099,100.538
2321.8743,100.454
2322.8384,100.266
2323.8027,100.012
2324.7668,99.7548
2325.7312,99.5628
2326.6953,99.4803
2327.6597,99.509
2328.6238,99.6062
2329.5881,99.7014
2330.5522,99.7276
2331.5166,99.6536
2332.4807,99.4962
2333.4451,99.3049
2334.4092,99.1317
2335.3735,99.0058
2336.3376,98.925
2337.3020,98.8634
2338.2661,98.7882
2339.2305,98.6805
2340.1946,98.5542
2341.1589,98.4709
2342.1230,98.5296
2343.0874,98.7896
2344.0515,99.1486
2345.0159,99.3742
2345.9800,99.312
2346.9443,99.0346
2347.9084,98.7442
2348.8728,98.6108
2349.8369,98.6904
2350.8013,98.9153
2351.7654,99.134
2352.7297,99.1988
2353.6938,99.0674
2354.6582,98.8201
2355.6223,98.5555
2356.5867,98.3063
2357.5508,98.0734
2358.5151,97.8858
2359.4792,97.7865
2360.4436,97.7811
2361.4077,97.8366
2362.3721,97.9332
2363.3362,98.0935
2364.3005,98.3531
2365.2646,98.7149
2366.2290,99.1372
2367.1931,99.561
2368.1575,99.9406
2369.1216,100.256
2370.0859,100.508
2371.0500,100.704
2372.0144,100.852
2372.9785,100.951
2373.9429,100.991
2374.9070,100.963
2375.8713,100.86
2376.8354,100.691
2377.7998,100.475
2378.7639,100.242
2379.7283,100.019
2380.6924,99.8297
2381.6567,99.6865
2382.6208,99.5929
2383.5852,99.5444
2384.5493,99.5314
2385.5137,99.5421
2386.4778,99.5649
2387.4421,99.5901
2388.4063,99.6111
2389.3706,99.6245
2390.3347,99.6299
2391.2991,99.6287
2392.2632,99.6237
2393.2275,99.618
2394.1917,99.6142
2395.1560,99.6137
2396.1201,99.6172
2397.0845,99.624
2398.0486,99.6321
2399.0129,99.639
2399.9771,99.6428
2400.9414,99.6419
2401.9055,99.6367
2402.8699,99.629
2403.8340,99.622
2404.7983,99.6184
2405.7625,99.6195
2406.7268,99.6242
2407.6909,99.63
2408.6553,99.6339
2409.6194,99.6346
2410.5837,99.6328
2411.5479,99.631
2412.5122,99.6314
2413.4763,99.6352
2414.4407,99.6416
2415.4048,99.6486
2416.3691,99.6543
2417.3333,99.658
2418.2976,99.6598
2419.2617,99.6604
2420.2261,99.6601
2421.1902,99.6596
2422.1545,99.6594
2423.1187,99.6609
2424.0830,99.6652
2425.0471,99.6732
2426.0115,99.6845
2426.9756,99.6974
2427.9399,99.7099
2428.9041,99.7204
2429.8684,99.7284
2430.8325,99.7342
2431.7969,99.7382
2432.7610,99.7404
2433.7253,99.7408
2434.6895,99.7395
2435.6538,99.7379
2436.6179,99.7382
2437.5823,99.7427
2438.5464,99.7525
2439.5107,99.7667
2440.4749,99.7825
2441.4392,99.7963
2442.4033,99.8055
2443.3677,99.8093
2444.3318,99.8088
2445.2961,99.8062
2446.2603,99.8034
2447.2246,99.801
2448.1887,99.7988
2449.1531,99.7961
2450.1172,99.7935
2451.0815,99.7919
2452.0457,99.7926
2453.0100,99.7958
2453.9741,99.8005
2454.9385,99.8048
2455.9026,99.807
2456.8669,99.8065
2457.8311,99.8041
2458.7954,99.8011
2459.7595,99.7986
2460.7239,99.7965
2461.6880,99.7946
2462.6523,99.7924
2463.6165,99.7902
2464.5808,99.7887
2465.5449,99.7884
2466.5093,99.7889
2467.4734,99.7889
2468.4377,99.787
2469.4019,99.7824
2470.3662,99.7761
2471.3303,99.7703
2472.2947,99.7673
2473.2588,99.7684
2474.2231,99.7731
2475.1873,99.7791
2476.1516,99.7841
2477.1157,99.7866
2478.0801,99.7869
2479.0442,99.7866
2480.0085,99.7873
2480.9727,99.7893
2481.9370,99.7914
2482.9011,99.7917
2483.8655,99.7889
2484.8296,99.7829
2485.7939,99.7758
2486.7581,99.7704
2487.7224,99.7687
2488.6865,99.7714
2489.6509,99.7769
2490.6150,99.7827
2491.5793,99.7867
2492.5435,99.7881
2493.5078,99.788
2494.4719,99.7887
2495.4363,99.7919
2496.4004,99.7983
2497.3647,99.8065
2498.3289,99.8142
2499.2932,99.8193
2500.2573,99.821
2501.2217,99.8206
2502.1858,99.8204
2503.1501,99.8227
2504.1143,99.8285
2505.0786,99.8369
2506.0427,99.8461
2507.0071,99.8537
2507.9712,99.8584
2508.9355,99.8604
2509.8997,99.8607
2510.8640,99.8607
2511.8281,99.8618
2512.7925,99.8648
2513.7566,99.8701
2514.7209,99.8778
2515.6851,99.8874
2516.6494,99.8981
2517.6135,99.9084
2518.5779,99.9166
2519.5420,99.9215
2520.5063,99.9227
2521.4705,99.9214
2522.4348,99.9195
2523.3989,99.9192
2524.3633,99.9217
2525.3274,99.9272
2526.2917,99.9346
2527.2559,99.9425
2528.2202,99.9496
2529.1843,99.9551
2530.1487,99.9584
2531.1128,99.9595
2532.0771,99.9583
2533.0413,99.9554
2534.0056,99.9517
2534.9697,99.9485
2535.9341,99.9474
2536.8982,99.9494
2537.8625,99.955
2538.8267,99.9636
2539.7910,99.9735
2540.7551,99.9827
2541.7195,99.9895
2542.6836,99.9935
2543.6479,99.9956
2544.6121,99.9974
2545.5764,100.001
2546.5405,100.006
2547.5049,100.011
2548.4690,100.016
2549.4333,100.019
2550.3975,100.021
2551.3618,100.024
2552.3259,100.028
2553.2903,100.035
2554.2544,100.045
2555.2188,100.055
2556.1829,100.064
2557.1472,100.072
2558.1113,100.08
2559.0757,100.089
2560.0398,100.099
2561.0042,100.109
2561.9683,100.116
2562.9326,100.119
2563.8967,100.116
2564.8611,100.111
2565.8252,100.105
2566.7896,100.104
2567.7537,100.107
2568.7180,100.115
2569.6821,100.125
2570.6465,100.133
2571.6106,100.139
2572.5750,100.14
2573.5391,100.138
2574.5034,100.135
2575.4675,100.13
2576.4319,100.126
2577.3960,100.123
2578.3604,100.122
2579.3245,100.123
2580.2888,100.128
2581.2529,100.135
2582.2173,100.144
2583.1814,100.153
2584.1458,100.161
2585.1099,100.165
2586.0742,100.166
2587.0383,100.163
2588.0027,100.159
2588.9668,100.155
2589.9312,100.152
2590.8953,100.151
2591.8596,100.151
2592.8237,100.151
2593.7881,100.15
2594.7522,100.148
2595.7166,100.147
2596.6807,100.148
2597.6450,100.152
2598.6091,100.159
2599.5735,100.169
2600.5376,100.18
2601.5020,100.189
2602.4661,100.196
2603.4304,100.2
2604.3945,100.201
2605.3589,100.202
2606.3230,100.204
2607.2874,100.209
2608.2515,100.216
2609.2158,100.224
2610.1799,100.233
2611.1443,100.242
2612.1084,100.248
2613.0728,100.253
2614.0369,100.256
2615.0012,100.259
2615.9653,100.262
2616.9297,100.265
2617.8938,100.269
2618.8582,100.273
2619.8223,100.277
2620.7866,100.281
2621.7507,100.286
2622.7151,100.292
2623.6792,100.299
2624.6436,100.305
2625.6077,100.31
2626.5720,100.313
2627.5361,100.314
2628.5005,100.312
2629.4646,100.309
2630.4290,100.307
2631.3931,100.307
2632.3574,100.31
2633.3215,100.316
2634.2859,100.323
2635.2500,100.329
2636.2144,100.332
2637.1785,100.331
2638.1428,100.327
2639.1069,100.323
2640.0713,100.323
2641.0354,100.327
2641.9998,100.333
2642.9639,100.34
2643.9282,100.346
2644.8923,100.349
2645.8567,100.35
2646.8208,100.352
2647.7852,100.354
2648.7493,100.357
2649.7136,100.36
2650.6777,100.362
2651.6421,100.362
2652.6062,100.361
2653.5706,100.362
2654.5347,100.366
2655.4990,100.373
2656.4631,100.382
2657.4275,100.391
2658.3916,100.399
2659.3560,100.406
2660.3201,100.41
2661.2844,100.413
2662.2485,100.416
2663.2129,100.419
2664.1770,100.422
2665.1414,100.425
2666.1055,100.428
2667.0698,100.431
2668.0339,100.434
2668.9983,100.437
2669.9624,100.44
2670.9268,100.443
2671.8909,100.446
2672.8552,100.449
2673.8193,100.453
2674.7837,100.457
2675.7478,100.463
2676.7122,100.468
2677.6763,100.47
2678.6406,100.466
2679.6047,100.455
2680.5691,100.438
2681.5332,100.419
2682.4976,100.403
2683.4617,100.391
2684.4260,100.386
2685.3901,100.383
2686.3545,100.379
2687.3186,100.371
2688.2830,100.361
2689.2471,100.35
2690.2114,100.342
2691.1755,100.339
2692.1399,100.34
2693.1040,100.345
2694.0684,100.347
2695.0325,100.346
2695.9968,100.339
2696.9609,100.328
2697.9253,100.314
2698.8894,100.3
2699.8538,100.289
2700.8179,100.28
2701.7822,100.274
2702.7463,100.268
2703.7107,100.261
2704.6748,100.251
2705.6392,100.238
2706.6033,100.221
2707.5676,100.203
2708.5317,100.186
2709.4961,100.172
2710.4602,100.162
2711.4246,100.154
2712.3887,100.146
2713.3530,100.134
2714.3171,100.118
2715.2815,100.097
2716.2456,100.075
2717.2100,100.055
2718.1741,100.038
2719.1384,100.025
2720.1025,100.015
2721.0669,100.007
2722.0310,99.9999
2722.9954,99.9926
2723.9595,99.9849
2724.9238,99.9764
2725.8879,99.9672
2726.8523,99.9577
2727.8164,99.9491
2728.7808,99.9427
2729.7449,99.9393
2730.7092,99.9389
2731.6733,99.94
2732.6377,99.9404
2733.6018,99.9383
2734.5662,99.9326
2735.5303,99.9232
2736.4946,99.9108
2737.4587,99.8962
2738.4231,99.8809
2739.3872,99.8666
2740.3516,99.8556
2741.3157,99.8505
2742.2800,99.8527
2743.2441,99.8622
2744.2085,99.8761
2745.1726,99.8899
2746.1370,99.8986
2747.1011,99.8994
2748.0654,99.8926
2749.0295,99.8818
2749.9939,99.8721
2750.9580,99.8676
2751.9224,99.87
2752.8865,99.8777
2753.8508,99.8871
2754.8149,99.8944
2755.7793,99.8969
2756.7434,99.894
2757.7078,99.8864
2758.6719,99.8759
2759.6362,99.8644
2760.6003,99.8534
2761.5647,99.8438
2762.5288,99.8359
2763.4932,99.8294
2764.4573,99.8239
2765.4216,99.819
2766.3857,99.8152
2767.3501,99.8134
2768.3142,99.8147
2769.2786,99.8183
2770.2427,99.8216
2771.2070,99.8204
2772.1711,99.8107
2773.1355,99.7908
2774.0996,99.7629
2775.0640,99.7315
2776.0281,99.7019
2776.9924,99.6773
2777.9565,99.6569
2778.9209,99.6368
2779.8850,99.6128
2780.8494,99.5829
2781.8135,99.5485
2782.7778,99.513
2783.7419,99.48
2784.7063,99.4505
2785.6704,99.423
2786.6348,99.3942
2787.5989,99.3608
2788.5632,99.3212
2789.5273,99.2758
2790.4917,99.2266
2791.4558,99.1758
2792.4202,99.1249
2793.3843,99.0742
2794.3486,99.023
2795.3127,98.9707
2796.2771,98.9169
2797.2412,98.8617
2798.2056,98.8052
2799.1697,98.7469
2800.1340,98.6858
2801.0981,98.6215
2802.0625,98.5547
2803.0266,98.488
2803.9910,98.4241
2804.9551,98.3645
2805.9194,98.3076
2806.8835,98.2491
2807.8479,98.1836
2808.8120,98.1072
2809.7764,98.0193
2810.7405,97.9225
2811.7048,97.8205
2812.6689,97.7168
2813.6333,97.6128
2814.5974,97.5076
2815.5618,97.3991
2816.5259,97.2841
2817.4902,97.1593
2818.4543,97.0217
2819.4187,96.8692
2820.3828,96.7013
2821.3472,96.5182
2822.3113,96.3208
2823.2756,96.1099
2824.2397,95.8854
2825.2041,95.6468
2826.1682,95.3938
2827.1326,95.1265
2828.0967,94.8462
2829.0610,94.5544
2830.0251,94.2532
2830.9895,93.9452
2831.9536,93.634
2832.9180,93.3244
2833.8821,93.0215
2834.8464,92.7299
2835.8105,92.453
2836.7749,92.1923
2837.7390,91.9488
2838.7034,91.7238
2839.6675,91.5191
2840.6318,91.3359
2841.5959,91.1724
2842.5603,91.0221
2843.5244,90.875
2844.4888,90.7217
2845.4529,90.5588
2846.4172,90.3935
2847.3813,90.2423
2848.3457,90.1252
2849.3098,90.0564
2850.2742,90.0375
2851.2383,90.0562
2852.2026,90.0914
2853.1667,90.1216
2854.1311,90.1312
2855.0952,90.1128
2856.0596,90.0646
2857.0237,89.9873
2857.9880,89.8816
2858.9521,89.7483
2859.9165,89.5896
2860.8806,89.4094
2861.8450,89.2131
2862.8091,89.0061
2863.7734,88.7931
2864.7375,88.5783
2865.7019,88.3661
2866.6660,88.1612
2867.6304,87.9684
2868.5945,87.791
2869.5588,87.6307
2870.5229,87.4862
2871.4873,87.3543
2872.4514,87.2299
2873.4158,87.1073
2874.3799,86.9818
2875.3442,86.8496
2876.3083,86.708
2877.2727,86.5548
2878.2368,86.3876
2879.2012,86.2057
2880.1653,86.0123
2881.1296,85.8154
2882.0938,85.6277
2883.0581,85.4619
2884.0222,85.3258
2884.9866,85.219
2885.9507,85.1327
2886.9150,85.0527
2887.8792,84.9644
2888.8435,84.8587
2889.8076,84.7351
2890.7720,84.6025
2891.7361,84.4748
2892.7004,84.3621
2893.6646,84.2614
2894.6289,84.1537
2895.5930,84.011
2896.5574,83.813
2897.5215,83.5641
2898.4858,83.2993
2899.4500,83.0728
2900.4143,82.9338
2901.3784,82.9037
2902.3428,82.9663
2903.3069,83.0782
2904.2712,83.1898
2905.2354,83.2659
2906.1997,83.2941
2907.1638,83.2801
2908.1282,83.2377
2909.0923,83.1787
2910.0566,83.1097
2911.0208,83.0316
2911.9851,82.9426
2912.9492,82.8404
2913.9136,82.724
2914.8777,82.5963
2915.8420,82.4647
2916.8062,82.34
2917.7705,82.2326
2918.7346,82.149
2919.6990,82.0897
2920.6631,82.0503
2921.6274,82.0243
2922.5916,82.0048
2923.5559,81.9859
2924.5200,81.9619
2925.4844,81.9283
2926.4485,81.883
2927.4128,81.827
2928.3770,81.7646
2929.3413,81.7019
2930.3054,81.645
2931.2698,81.599
2932.2339,81.5688
2933.1982,81.5595
2934.1624,81.5765
2935.1267,81.6242
2936.0908,81.7041
2937.0552,81.8137
2938.0193,81.947
2938.9836,82.0975
2939.9478,82.2607
2940.9121,82.4359
2941.8762,82.626
2942.8406,82.8342
2943.8047,83.0594
2944.7690,83.2939
2945.7332,83.523
2946.6975,83.7293
2947.6616,83.8979
2948.6260,84.0205
2949.5901,84.096
2950.5544,84.128
2951.5186,84.1212
2952.4829,84.0795
2953.4470,84.0054
2954.4114,83.9014
2955.3755,83.7717
2956.3398,83.6213
2957.3040,83.455
2958.2683,83.2753
2959.2324,83.0813
2960.1968,82.8692
2961.1609,82.6341
2962.1252,82.3728
2963.0894,82.0864
2964.0537,81.7814
2965.0178,81.4694
2965.9822,81.1645
2966.9463,80.8824
2967.9106,80.6379
2968.8748,80.4451
2969.8391,80.317
2970.8032,80.2636
2971.7676,80.291
2972.7317,80.3986
2973.6960,80.58
2974.6602,80.8238
2975.6245,81.1176
2976.5886,81.4499
2977.5530,81.8115
2978.5171,82.1951
2979.4814,82.5941
2980.4456,82.9995
2981.4099,83.3981
2982.3740,83.7719
2983.3384,84.1038
2984.3025,84.3873
2985.2668,84.6367
2986.2310,84.8902
2987.1953,85.1994
2988.1594,85.6072
2989.1238,86.1244
2990.0879,86.7196
2991.0522,87.3302
2992.0164,87.8888
2992.9807,88.3521
2993.9448,88.7156
2994.9092,89.0077
2995.8733,89.2696
2996.8376,89.534
2997.8018,89.814
2998.7661,90.106
2999.7302,90.4001
3000.6946,90.6905
3001.6587,90.9792
3002.6230,91.2739
3003.5872,91.5824
3004.5515,91.9074
3005.5156,92.2452
3006.4800,92.5865
3007.4441,92.9208
3008.4084,93.2403
3009.3726,93.5436
3010.3369,93.8362
3011.3010,94.1273
3012.2654,94.4246
3013.2295,94.7297
3014.1938,95.0368
3015.1580,95.3364
3016.1223,95.6202
3017.0864,95.8847
3018.0508,96.1318
3019.0149,96.3662
3019.9792,96.5913
3020.9434,96.8077
3021.9077,97.0138
3022.8718,97.208
3023.8362,97.3902
3024.8003,97.5617
3025.7646,97.7242
3026.7288,97.8792
3027.6931,98.027
3028.6572,98.1684
3029.6216,98.3047
3030.5857,98.4376
3031.5500,98.5677
3032.5142,98.6938
3033.4785,98.8138
3034.4426,98.9256
3035.4070,99.0289
3036.3711,99.125
3037.3354,99.2154
3038.2996,99.3005
3039.2639,99.3784
3040.2280,99.4457
3041.1924,99.4723
3042.1565,99.4784
3043.1208,99.4691
3044.0850,99.4487
3045.0493,99.423
3046.0134,99.3978
3046.9778,99.3762
3047.9419,99.3571
3048.9063,99.3356
3049.8704,99.3052
3050.8347,99.2616
3051.7988,99.2049
3052.7632,99.1397
3053.7273,99.0739
3054.6917,99.0151
3055.6558,98.9684
3056.6201,98.9343
3057.5842,98.9081
3058.5486,98.8818
3059.5127,98.8461
3060.4771,98.7949
3061.4412,98.7272
3062.4055,98.6489
3063.3696,98.5701
3064.3340,98.5007
3065.2981,98.4458
3066.2625,98.4034
3067.2266,98.367
3068.1909,98.3305
3069.1550,98.2919
3070.1194,98.2542
3071.0835,98.2213
3072.0479,98.1941
3073.0120,98.1679
3073.9763,98.1347
3074.9404,98.0873
3075.9048,98.0244
3076.8689,97.9524
3077.8333,97.8821
3078.7974,97.8243
3079.7617,97.7839
3080.7258,97.7587
3081.6902,97.7407
3082.6543,97.7215
3083.6187,97.6955
3084.5828,97.6623
3085.5471,97.6245
3086.5112,97.5854
3087.4756,97.5461
3088.4397,97.5051
3089.4041,97.4592
3090.3682,97.4061
3091.3325,97.346
3092.2966,97.281
3093.2610,97.2141
3094.2251,97.1472
3095.1895,97.0803
3096.1536,97.0124
3097.1179,96.9434
3098.0820,96.8752
3099.0464,96.8118
3100.0105,96.7568
3100.9749,96.712
3101.9390,96.6758
3102.9033,96.6437
3103.8674,96.611
3104.8318,96.5739
3105.7959,96.5305
3106.7603,96.4799
3107.7244,96.4219
3108.6887,96.356
3109.6528,96.2826
3110.6172,96.2027
3111.5813,96.1192
3112.5457,96.0357
3113.5098,95.9562
3114.4741,95.8835
3115.4382,95.8188
3116.4026,95.7614
3117.3667,95.7092
3118.3311,95.6602
3119.2952,95.6126
3120.2595,95.5652
3121.2236,95.5173
3122.1880,95.4683
3123.1521,95.4181
3124.1165,95.367
3125.0806,95.3149
3126.0449,95.2609
3127.0090,95.2026
3127.9734,95.137
3128.9375,95.063
3129.9019,94.9833
3130.8660,94.9052
3131.8303,94.838
3132.7944,94.7881
3133.7588,94.7552
3134.7229,94.7317
3135.6873,94.7064
3136.6514,94.6703
3137.6157,94.6203
3138.5798,94.5599
3139.5442,94.4956
3140.5083,94.4327
3141.4727,94.373
3142.4368,94.3146
3143.4011,94.2546
3144.3652,94.1918
3145.3296,94.1279
3146.2937,94.0666
3147.2581,94.0109
3148.2222,93.9614
3149.1865,93.9146
3150.1506,93.8644
3151.1150,93.8053
3152.0791,93.735
3153.0435,93.6565
3154.0076,93.5766
3154.9719,93.5021
3155.9360,93.4363
3156.9004,93.3777
3157.8645,93.3212
3158.8289,93.262
3159.7930,93.1981
3160.7573,93.1311
3161.7214,93.0636
3162.6858,92.9969
3163.6499,92.9297
3164.6143,92.8597
3165.5784,92.7859
3166.5427,92.7103
3167.5068,92.6378
3168.4712,92.572
3169.4353,92.5708
3170.3997,92.5136
3171.3638,92.4503
3172.3281,92.3752
3173.2922,92.288
3174.2566,92.1944
3175.2207,92.1037
3176.1851,92.0245
3177.1492,91.9611
3178.1135,91.9111
3179.0776,91.8679
3180.0420,91.8237
3181.0061,91.7734
3181.9705,91.7163
3182.9346,91.6548
3183.8989,91.5923
3184.8630,91.5305
3185.8274,91.4687
3186.7915,91.4047
3187.7559,91.3368
3188.7200,91.2658
3189.6843,91.1948
3190.6484,91.1276
3191.6128,91.0659
3192.5769,91.0087
3193.5413,90.9522
3194.5054,90.8924
3195.4697,90.8275
3196.4338,90.7591
3197.3982,90.6914
3198.3623,90.6287
3199.3267,90.5733
3200.2908,90.5241
3201.2551,90.4775
3202.2192,90.4283
3203.1836,90.3723
3204.1477,90.3078
3205.1121,90.2363
3206.0762,90.1621
3207.0405,90.0906
3208.0046,90.0251
3208.9690,89.9661
3209.9331,89.9107
3210.8975,89.8551
3211.8616,89.7976
3212.8259,89.7396
3213.7900,89.685
3214.7544,89.6367
3215.7185,89.5951
3216.6829,89.5571
3217.6470,89.5187
3218.6113,89.477
3219.5754,89.4314
3220.5398,89.3826
3221.5039,89.3311
3222.4683,89.2761
3223.4324,89.2175
3224.3967,89.1568
3225.3608,89.0986
3226.3252,89.0486
3227.2893,89.0111
3228.2537,88.9854
3229.2178,88.9659
3230.1821,88.9437
3231.1462,88.911
3232.1106,88.8644
3233.0747,88.8063
3234.0391,88.7432
3235.0032,88.6825
3235.9675,88.6296
3236.9316,88.5854
3237.8960,88.5469
3238.8601,88.5089
3239.8245,88.4671
3240.7886,88.4202
3241.7529,88.3701
3242.7170,88.3211
3243.6814,88.277
3244.6455,88.2393
3245.6099,88.2064
3246.5740,88.1739
3247.5383,88.1376
3248.5024,88.0953
3249.4668,88.0476
3250.4309,87.9977
3251.3953,87.9489
3252.3594,87.9035
3253.3237,87.8619
3254.2878,87.8223
3255.2522,87.7827
3256.2163,87.7424
3257.1807,87.702
3258.1448,87.6632
3259.1091,87.6265
3260.0732,87.5906
3261.0376,87.5527
3262.0017,87.5107
3262.9661,87.465
3263.9302,87.4187
3264.8945,87.3762
3265.8586,87.34
3266.8230,87.3081
3267.7871,87.275
3268.7515,87.2348
3269.7156,87.1845
3270.6799,87.1265
3271.6440,87.0674
3272.6084,87.0145
3273.5725,86.9723
3274.5369,86.9412
3275.5010,86.9181
3276.4653,86.8994
3277.4294,86.8821
3278.3938,86.8646
3279.3579,86.8449
3280.3223,86.8211
3281.2864,86.7912
3282.2507,86.7547
3283.2148,86.7136
3284.1792,86.6715
3285.1433,86.6324
3286.1077,86.5985
3287.0718,86.5697
3288.0361,86.5434
3289.0002,86.5164
3289.9646,86.4865
3290.9287,86.4538
3291.8931,86.4203
3292.8572,86.3886
3293.8215,86.3601
3294.7856,86.3335
3295.7500,86.3051
3296.7141,86.2714
3297.6785,86.2311
3298.6426,86.1875
3299.6069,86.1475
3300.5710,86.1177
3301.5354,86.1011
3302.4995,86.094
3303.4639,86.0881
3304.4280,86.0746
3305.3923,86.0482
3306.3564,86.0103
3307.3208,85.967
3308.2849,85.9256
3309.2493,85.8908
3310.2134,85.8626
3311.1777,85.8375
3312.1418,85.811
3313.1062,85.7802
3314.0703,85.7455
3315.0347,85.7091
3315.9988,85.674
3316.9631,85.6425
3317.9272,85.6155
3318.8916,85.5932
3319.8557,85.5754
3320.8201,85.561
3321.7842,85.5483
3322.7485,85.5343
3323.7126,85.5159
3324.6770,85.4919
3325.6411,85.4633
3326.6055,85.4336
3327.5696,85.4057
3328.5339,85.3802
3329.4980,85.3549
3330.4624,85.3275
3331.4265,85.298
3332.3909,85.2701
3333.3550,85.2495
3334.3193,85.2399
3335.2834,85.2399
3336.2478,85.2429
3337.2119,85.2406
3338.1763,85.2278
3339.1404,85.205
3340.1047,85.177
3341.0688,85.1491
3342.0332,85.125
3342.9973,85.1054
3343.9617,85.0901
3344.9258,85.0795
3345.8901,85.0742
3346.8542,85.0737
3347.8186,85.0751
3348.7827,85.0725
3349.7471,85.0607
3350.7112,85.0372
3351.6755,85.0046
3352.6396,84.9692
3353.6040,84.9375
3354.5681,84.9137
3355.5325,84.8983
3356.4966,84.8885
3357.4609,84.881
3358.4250,84.8738
3359.3894,84.8663
3360.3535,84.8589
3361.3179,84.852
3362.2820,84.8454
3363.2463,84.8393
3364.2104,84.8344
3365.1748,84.832
3366.1389,84.8325
3367.1033,84.8349
3368.0674,84.8369
3369.0317,84.8365
3369.9958,84.8333
3370.9602,84.8289
3371.9243,84.8253
3372.8887,84.8239
3373.8528,84.8241
3374.8171,84.8242
3375.7813,84.8234
3376.7456,84.8227
3377.7097,84.8241
3378.6741,84.8289
3379.6382,84.8353
3380.6025,84.8392
3381.5667,84.8367
3382.5310,84.827
3383.4951,84.8136
3384.4595,84.8028
3385.4236,84.8
3386.3879,84.8062
3387.3521,84.8181
3388.3164,84.8303
3389.2805,84.8389
3390.2449,84.8432
3391.2090,84.8458
3392.1733,84.8506
3393.1375,84.8605
3394.1018,84.8766
3395.0659,84.8983
3396.0303,84.9233
3396.9944,84.948
3397.9587,84.9677
3398.9229,84.9787
3399.8872,84.9805
3400.8513,84.9765
3401.8157,84.9731
3402.7798,84.9764
3403.7441,84.9897
3404.7083,85.0116
3405.6726,85.0382
3406.6367,85.0651
3407.6011,85.0893
3408.5652,85.1097
3409.5295,85.1259
3410.4937,85.1376
3411.4580,85.1446
3412.4221,85.1477
3413.3865,85.1488
3414.3506,85.1501
3415.3149,85.1535
3416.2791,85.159
3417.2434,85.1666
3418.2075,85.178
3419.1719,85.1972
3420.1360,85.2293
3421.1003,85.2761
3422.0645,85.3335
3423.0288,85.3926
3423.9929,85.4439
3424.9573,85.4822
3425.9214,85.5085
3426.8857,85.5299
3427.8499,85.5556
3428.8142,85.5921
3429.7783,85.64
3430.7427,85.6945
3431.7068,85.7483
3432.6711,85.7955
3433.6353,85.8331
3434.5996,85.8617
3435.5637,85.8835
3436.5281,85.9009
3437.4922,85.9164
3438.4565,85.9314
3439.4207,85.9464
3440.3850,85.9606
3441.3491,85.9724
3442.3135,85.9809
3443.2776,85.9877
3444.2419,85.9981
3445.2061,86.0192
3446.1704,86.0571
3447.1345,86.1124
3448.0989,86.1796
3449.0630,86.2504
3450.0273,86.3185
3450.9915,86.3812
3451.9558,86.4379
3452.9199,86.4876
3453.8843,86.5287
3454.8484,86.5597
3455.8127,86.5808
3456.7769,86.5941
3457.7412,86.6032
3458.7053,86.6118
3459.6697,86.6238
3460.6338,86.6426
3461.5981,86.6707
3462.5623,86.7089
3463.5266,86.7556
3464.4907,86.8079
3465.4551,86.8624
3466.4192,86.9166
3467.3835,86.9689
3468.3477,87.0178
3469.3120,87.0613
3470.2761,87.0976
3471.2405,87.1275
3472.2046,87.1545
3473.1689,87.1843
3474.1331,87.2206
3475.0974,87.2618
3476.0615,87.3012
3477.0259,87.3308
3477.9900,87.347
3478.9543,87.3543
3479.9185,87.3639
3480.8828,87.3877
3481.8469,87.4311
3482.8113,87.4891
3483.7754,87.5508
3484.7397,87.607
3485.7039,87.6551
3486.6682,87.6986
3487.6323,87.7429
3488.5967,87.7907
3489.5608,87.8397
3490.5251,87.8848
3491.4893,87.9232
3492.4536,87.957
3493.4177,87.993
3494.3821,88.0376
3495.3462,88.0914
3496.3105,88.1455
3497.2747,88.1867
3498.2390,88.2056
3499.2031,88.2047
3500.1675,88.1999
3501.1316,88.2155
3502.0959,88.2718
3503.0601,88.37
3504.0244,88.4893
3504.9885,88.6018
3505.9529,88.6923
3506.9170,88.7636
3507.8813,88.8295
3508.8455,88.9047
3509.8098,88.9956
3510.7739,89.0971
3511.7383,89.1985
3512.7024,89.2922
3513.6667,89.3777
3514.6309,89.457
3515.5952,89.5302
3516.5593,89.5931
3517.5237,89.6411
3518.4878,89.6738
3519.4521,89.6977
3520.4163,89.724
3521.3806,89.7634
3522.3447,89.8204
3523.3091,89.8909
3524.2732,89.9665
3525.2375,90.0432
3526.2017,90.1265
3527.1660,90.2289
3528.1301,90.3589
3529.0945,90.511
3530.0586,90.6663
3531.0229,90.8046
3531.9871,90.9162
3532.9514,91.0056
3533.9155,91.0881
3534.8799,91.1812
3535.8440,91.2952
3536.8083,91.4249
3537.7725,91.5513
3538.7368,91.653
3539.7009,91.7181
3540.6653,91.7488
3541.6294,91.7594
3542.5938,91.7731
3543.5579,91.8189
3544.5222,91.9196
3545.4863,92.0744
3546.4507,92.2527
3547.4148,92.4162
3548.3792,92.5468
3549.3433,92.6534
3550.3076,92.7596
3551.2717,92.887
3552.2361,93.0426
3553.2002,93.2139
3554.1646,93.3773
3555.1287,93.5153
3556.0930,93.6243
3557.0571,93.7099
3558.0215,93.7777
3558.9856,93.8284
3559.9500,93.8588
3560.9141,93.8668
3561.8784,93.8555
3562.8425,93.8335
3563.8069,93.8166
3564.7710,93.8409
3565.7354,93.9685
3566.6995,94.2364
3567.6638,94.5784
3568.6279,94.8665
3569.5923,95.0364
3570.5564,95.1158
3571.5208,95.1628
3572.4849,95.2161
3573.4492,95.2843
3574.4133,95.3577
3575.3777,95.4245
3576.3418,95.4809
3577.3062,95.532
3578.2703,95.5844
3579.2346,95.6392
3580.1987,95.6911
3581.1631,95.734
3582.1272,95.7673
3583.0916,95.7945
3584.0557,95.8186
3585.0200,95.8474
3585.9841,95.9054
3586.9485,96.0173
3587.9126,96.1547
3588.8770,96.2442
3589.8411,96.2474
3590.8054,96.1889
3591.7695,96.1165
3592.7339,96.0659
3593.6980,96.0523
3594.6624,96.0724
3595.6265,96.1068
3596.5908,96.1349
3597.5549,96.154
3598.5193,96.1827
3599.4834,96.2448
3600.4478,96.3474
3601.4119,96.4738
3602.3762,96.5982
3603.3403,96.707
3604.3047,96.8019
3605.2688,96.8905
3606.2332,96.9812
3607.1973,97.0792
3608.1616,97.1774
3609.1257,97.2508
3610.0901,97.273
3611.0542,97.2386
3612.0186,97.1677
3612.9829,97.093
3613.9470,97.0418
3614.9114,97.0271
3615.8755,97.0484
3616.8398,97.1009
3617.8040,97.1834
3618.7683,97.2897
3619.7324,97.3854
3620.6968,97.4156
3621.6609,97.3618
3622.6252,97.2693
3623.5894,97.2099
3624.5537,97.2284
3625.5178,97.3164
3626.4822,97.4298
3627.4463,97.5436
3628.4106,97.6726
3629.3748,97.7897
3630.3391,97.819
3631.3032,97.7551
3632.2676,97.6712
3633.2317,97.6339
3634.1960,97.6587
3635.1602,97.7189
3636.1245,97.7763
3637.0886,97.8077
3638.0530,97.8112
3639.0171,97.7957
3639.9814,97.7676
3640.9456,97.7294
3641.9099,97.6867
3642.8740,97.6517
3643.8384,97.6336
3644.8025,97.6165
3645.7668,97.5459
3646.7310,97.3737
3647.6953,97.1892
3648.6594,97.2339
3649.6238,97.5337
3650.5879,97.7997
3651.5522,97.8704
3652.5164,97.8139
3653.4807,97.7389
3654.4448,97.693
3655.4092,97.6687
3656.3733,97.6398
3657.3376,97.5891
3658.3018,97.5222
3659.2661,97.4657
3660.2302,97.4457
3661.1946,97.4654
3662.1587,97.5053
3663.1230,97.5439
3664.0872,97.5788
3665.0515,97.6215
3666.0156,97.6741
3666.9800,97.7118
3667.9441,97.7046
3668.9084,97.6603
3669.8726,97.619
3670.8369,97.5976
3671.8010,97.5815
3672.7654,97.5513
3673.7295,97.5017
3674.6938,97.4703
3675.6580,97.5228
3676.6223,97.6519
3677.5864,97.771
3678.5508,97.8331
3679.5149,97.8547
3680.4792,97.8591
3681.4434,97.8517
3682.4077,97.8361
3683.3718,97.8296
3684.3362,97.8527
3685.3003,97.9014
3686.2646,97.9291
3687.2288,97.8781
3688.1931,97.7606
3689.1572,97.6824
3690.1216,97.7136
3691.0857,97.8068
3692.0500,97.8958
3693.0142,97.965
3693.9785,98.0268
3694.9426,98.094
3695.9070,98.1751
3696.8711,98.2773
3697.8354,98.4044
3698.7996,98.5514
3699.7639,98.7043
3700.7280,98.8442
3701.6924,98.951
3702.6565,99.0077
3703.6208,99.0118
3704.5850,98.9834
3705.5493,98.952
3706.5134,98.9336
3707.4778,98.9217
3708.4419,98.911
3709.4063,98.9456
3710.3704,99.1173
3711.3347,99.4358
3712.2988,99.7503
3713.2632,99.9097
3714.2273,99.9014
3715.1917,99.8024
3716.1558,99.6871
3717.1201,99.5874
3718.0842,99.4981
3719.0486,99.3996
3720.0127,99.2816
3720.9771,99.153
3721.9412,99.0388
3722.9055,98.9678
3723.8696,98.9581
3724.8340,99.0033
3725.7981,99.0736
3726.7625,99.1377
3727.7266,99.1855
3728.6909,99.2265
3729.6550,99.2665
3730.6194,99.2887
3731.5835,99.2579
3732.5479,99.1592
3733.5120,99.0497
3734.4763,99.0429
3735.4404,99.1765
3736.4048,99.3137
3737.3689,99.3545
3738.3333,99.3416
3739.2974,99.3936
3740.2617,99.597
3741.2258,99.9452
3742.1902,100.327
3743.1543,100.577
3744.1187,100.576
3745.0828,100.341
3746.0471,99.9924
3747.0112,99.666
3747.9756,99.4434
3748.9397,99.3547
3749.9041,99.4184
3750.8682,99.609
3751.8325,99.7824
3752.7966,99.7969
3753.7610,99.6684
3754.7251,99.5051
3755.6895,99.3913
3756.6536,99.3558
3757.6179,99.3934
3758.5820,99.4822
3759.5464,99.5828
3760.5105,99.6542
3761.4749,99.6822
3762.4390,99.6806
3763.4033,99.6707
3764.3674,99.6659
3765.3318,99.6703
3766.2959,99.6832
3767.2603,99.7031
3768.2244,99.7304
3769.1887,99.7665
3770.1528,99.8047
3771.1172,99.8287
3772.0813,99.8249
3773.0457,99.7981
3774.0098,99.767
3774.9741,99.7465
3775.9382,99.7365
3776.9026,99.7292
3777.8667,99.722
3778.8311,99.7158
3779.7952,99.7014
3780.7595,99.6634
3781.7236,99.6003
3782.6880,99.5306
3783.6521,99.4823
3784.6165,99.4787
3785.5806,99.5247
3786.5449,99.6041
3787.5090,99.6894
3788.4734,99.7592
3789.4375,99.8078
3790.4019,99.84
3791.3660,99.8579
3792.3303,99.8516
3793.2944,99.8027
3794.2588,99.7023
3795.2229,99.5682
3796.1873,99.4417
3797.1514,99.3609
3798.1157,99.3349
3799.0798,99.3422
3800.0442,99.3573
3801.0083,99.3733
3801.9727,99.395
3802.9368,99.4289
3803.9011,99.491
3804.8652,99.5965
3805.8296,99.7338
3806.7937,99.8547
3807.7581,99.8979
3808.7222,99.8402
3809.6865,99.7275
3810.6506,99.6431
3811.6150,99.6422
3812.5791,99.7123
3813.5435,99.7846
3814.5076,99.7886
3815.4719,99.7069
3816.4360,99.5773
3817.4004,99.4528
3818.3645,99.371
3819.3289,99.3488
3820.2930,99.3809
3821.2573,99.4268
3822.2214,99.4268
3823.1858,99.3595
3824.1499,99.2648
3825.1143,99.2022
3826.0784,99.2059
3827.0427,99.2717
3828.0068,99.3687
3828.9712,99.4605
3829.9353,99.5235
3830.8997,99.553
3831.8638,99.558
3832.8281,99.5503
3833.7922,99.5325
3834.7566,99.4936
3835.7207,99.4179
3836.6851,99.3066
3837.6492,99.1919
3838.6135,99.1165
3839.5776,99.0988
3840.5420,99.1327
3841.5061,99.2082
3842.4705,99.3103
3843.4346,99.4067
3844.3989,99.454
3845.3630,99.4291
3846.3274,99.355
3847.2915,99.2977
3848.2559,99.3303
3849.2200,99.4902
3850.1843,99.747
3851.1484,100.013
3852.1128,100.223
3853.0769,100.38
3854.0413,100.411
3855.0054,100.213
3855.9697,99.8586
3856.9338,99.5235
3857.8982,99.3236
3858.8623,99.2737
3859.8267,99.3138
3860.7908,99.3579
3861.7551,99.3506
3862.7192,99.3044
3863.6836,99.2759
3864.6477,99.3042
3865.6121,99.3835
3866.5762,99.4805
3867.5405,99.5547
3868.5046,99.5751
3869.4690,99.538
3870.4331,99.4726
3871.3975,99.4169
3872.3616,99.3881
3873.3259,99.3828
3874.2900,99.3951
3875.2544,99.4244
3876.2185,99.4673
3877.1829,99.5083
3878.1470,99.5234
3879.1113,99.4994
3880.0754,99.4519
3881.0398,99.4204
3882.0039,99.4415
3882.9683,99.5242
3883.9324,99.6438
3884.8967,99.7517
3885.8608,99.8
3886.8252,99.7721
3887.7893,99.6896
3888.7537,99.5909
3889.7178,99.5055
3890.6821,99.4493
3891.6462,99.4243
3892.6106,99.415
3893.5747,99.404
3894.5391,99.3979
3895.5032,99.4176
3896.4675,99.4666
3897.4316,99.5205
3898.3960,99.5468
3899.3601,99.5298
3900.3245,99.4785
3901.2886,99.4157
3902.2529,99.3709
3903.2170,99.369
3904.1814,99.411
3905.1455,99.4708
3906.1099,99.5221
3907.0740,99.5584
3908.0383,99.5859
3909.0024,99.6077
3909.9668,99.6201
3910.9309,99.6184
3911.8953,99.6032
3912.8594,99.5804
3913.8237,99.5565
3914.7878,99.5356
3915.7522,99.5221
3916.7163,99.5207
3917.6807,99.5283
3918.6448,99.529
3919.6091,99.5063
3920.5732,99.4589
3921.5376,99.4007
3922.5017,99.3505
3923.4661,99.3217
3924.4302,99.3143
3925.3945,99.313
3926.3586,99.2998
3927.3230,99.269
3928.2871,99.2303
3929.2515,99.2026
3930.2156,99.2072
3931.1799,99.2574
3932.1440,99.3446
3933.1084,99.4388
3934.0725,99.51
3935.0369,99.5477
3936.0010,99.5582
3936.9653,99.5518
3937.9294,99.5329
3938.8938,99.5004
3939.8579,99.4544
3940.8223,99.4034
3941.7864,99.3632
3942.7507,99.3453
3943.7148,99.3474
3944.6792,99.3551
3945.6433,99.3533
3946.6077,99.3346
3947.5718,99.3042
3948.5361,99.2773
3949.5002,99.2695
3950.4646,99.285
3951.4287,99.3152
3952.3931,99.3469
3953.3572,99.3701
3954.3215,99.3801
3955.2856,99.3771
3956.2500,99.3644
3957.2141,99.3468
3958.1785,99.3296
3959.1426,99.3194
3960.1069,99.323
3961.0710,99.3443
3962.0354,99.3807
3962.9995,99.4216
3963.9639,99.453
3964.9280,99.4641
3965.8923,99.4525
3966.8564,99.4234
3967.8208,99.3864
3968.7849,99.3504
3969.7493,99.3203
3970.7134,99.2976
3971.6777,99.2828
3972.6418,99.2778
3973.6062,99.2855
3974.5703,99.3066
3975.5347,99.3376
3976.4988,99.3715
3977.4631,99.4
3978.4272,99.4169
3979.3916,99.4193
3980.3557,99.4075
3981.3201,99.3847
3982.2842,99.3567
3983.2485,99.3309
3984.2126,99.3145
3985.1770,99.3119
3986.1411,99.3224
3987.1055,99.3386
3988.0696,99.3486
3989.0339,99.3409
3989.9980,99.3111
3990.9624,99.2661
3991.9265,99.2221
3992.8909,99.1975
3993.8550,99.2032
3994.8193,99.2364
3995.7834,99.2822
3996.7478,99.3218
3997.7119,99.3425
3998.6763,99.3437
3999.6404,99.3347
4000.6047,99.1292

##### Extended Information
[Comments]
Sample name
Comment
User
Division
Company,HANKYONG

[Detailed Information]
Creation date,4/24/2024 12:17 PM

Data array type,Linear data array
Horizontal axis,Wavenumber [cm-1]
Vertical axis,%T
Start,649.893 cm-1
End,4000.6 cm-1
Data interval,0.964233 cm-1
Data points,3476    

[Measurement Information]
Model Name,FT/IR-4700typeA
Serial Number,D056761788

Accessory,ATR PRO ONE
Accessory S/N,C174761809
Incident angle,45 deg

Measurement Date,4/24/2024 12:16 PM

Light Source,Standard
Detector,TGS
Accumulation,32
Resolution,4 cm-1
Zero Filling,On
Apodization,Cosine
Gain,Auto (4)
Aperture,Auto (7.1 mm)
Scanning Speed,Auto (2 mm/sec)
Filter,Auto (30000 Hz)

