TITLE,
DATA TYPE,INFRARED SPECTRUM
ORIGIN,JASCO
OWNER,
DATE,24/04/24
TIME,14:27:03
SPECTROMETER/DATA SYSTEM,
LOCALE,1033
RESOLUTION,
DELTAX,0.964233
XUNITS,1/CM
YUNITS,TRANSMITTANCE
FIRSTX,  649.8934
LASTX, 4000.6047
NPOINTS,    3476
FIRSTY,    98.36621
MAXY,   101.55547
MINY,    80.08192
XYDATA
649.8934,98.3662
650.8576,98.3215
651.8218,98.309
652.7861,98.3239
653.7503,98.3593
654.7145,98.4133
655.6788,98.4783
656.6430,98.5373
657.6072,98.5752
658.5715,98.5968
659.5357,98.634
660.4999,98.7276
661.4642,98.8883
662.4284,99.0713
663.3926,99.1865
664.3569,99.1227
665.3211,98.7622
666.2853,98.0144
667.2496,96.9528
668.2138,96.0161
669.1780,95.7673
670.1423,96.214
671.1065,96.9087
672.0707,97.5064
673.0350,97.8835
673.9992,98.0357
674.9634,98.0128
675.9277,97.8932
676.8919,97.7577
677.8561,97.659
678.8204,97.6107
679.7846,97.6036
680.7488,97.6259
681.7131,97.6721
682.6773,97.7406
683.6415,97.8284
684.6058,97.9276
685.5700,98.0263
686.5342,98.1088
687.4985,98.1589
688.4627,98.164
689.4269,98.1207
690.3912,98.0379
691.3554,97.9432
692.3196,97.8906
693.2839,97.9478
694.2481,98.1465
695.2123,98.4454
696.1766,98.7667
697.1408,99.0468
698.1050,99.2505
699.0693,99.3679
700.0335,99.4102
700.9977,99.4032
701.9620,99.3776
702.9262,99.3593
703.8904,99.3636
704.8547,99.3927
705.8189,99.4362
706.7831,99.4754
707.7474,99.49
708.7116,99.4674
709.6758,99.409
710.6401,99.3797
711.6043,99.3919
712.5685,99.4245
713.5328,99.4756
714.4970,99.5207
715.4612,99.6583
716.4255,99.581
717.3897,99.4374
718.3539,99.266
719.3182,99.1288
720.2824,99.0812
721.2466,99.1409
722.2109,99.2796
723.1751,99.442
724.1393,99.5769
725.1036,99.6565
726.0678,99.6786
727.0320,99.6573
727.9963,99.6114
728.9605,99.5563
729.9247,99.5031
730.8890,99.4603
731.8532,99.4345
732.8174,99.4283
733.7817,99.436
734.7459,99.4434
735.7101,99.4321
736.6744,99.3868
737.6386,99.3032
738.6028,99.1914
739.5671,99.0721
740.5313,98.9682
741.4955,98.8955
742.4598,98.8557
743.4240,98.8374
744.3882,98.8225
745.3525,98.7945
746.3167,98.7445
747.2809,98.6718
748.2452,98.5806
749.2094,98.4769
750.1736,98.3662
751.1379,98.2542
752.1021,98.147
753.0663,98.0508
754.0306,97.9701
754.9948,97.9061
755.9590,97.8568
756.9233,97.8182
757.8875,97.786
758.8517,97.7565
759.8160,97.7271
760.7802,97.697
761.7444,97.6669
762.7087,97.6379
763.6729,97.6106
764.6371,97.5839
765.6014,97.5558
766.5656,97.5254
767.5298,97.4948
768.4941,97.469
769.4583,97.4526
770.4225,97.4468
771.3868,97.4472
772.3510,97.4458
773.3152,97.4341
774.2795,97.4066
775.2437,97.3621
776.2079,97.3045
777.1722,97.241
778.1364,97.181
779.1006,97.1337
780.0649,97.1049
781.0291,97.094
781.9933,97.0931
782.9576,97.0897
783.9218,97.0715
784.8860,97.0318
785.8503,96.971
786.8145,96.8953
787.7787,96.8128
788.7430,96.7301
789.7072,96.6511
790.6714,96.5771
791.6357,96.5085
792.5999,96.445
793.5641,96.3861
794.5284,96.3303
795.4926,96.2759
796.4568,96.2212
797.4211,96.1658
798.3853,96.1106
799.3495,96.0582
800.3138,96.0116
801.2780,95.9727
802.2422,95.9408
803.2065,95.9114
804.1707,95.8787
805.1349,95.838
806.0992,95.7896
807.0634,95.7395
808.0276,95.6969
808.9919,95.668
809.9561,95.6523
810.9203,95.6414
811.8846,95.6249
812.8488,95.5975
813.8130,95.5642
814.7773,95.5389
815.7415,95.5373
816.7057,95.5688
817.6700,95.6316
818.6342,95.7157
819.5984,95.8092
820.5627,95.9054
821.5269,96.0048
822.4911,96.1122
823.4554,96.2327
824.4196,96.3688
825.3839,96.5198
826.3481,96.6839
827.3123,96.859
828.2766,97.0409
829.2408,97.2226
830.2050,97.3931
831.1693,97.5404
832.1335,97.6546
833.0977,97.731
834.0620,97.7713
835.0262,97.7812
835.9904,97.7677
836.9547,97.7357
837.9189,97.6871
838.8831,97.6199
839.8474,97.5304
840.8116,97.4154
841.7758,97.2752
842.7401,97.1151
843.7043,96.9446
844.6685,96.7746
845.6328,96.6131
846.5970,96.4631
847.5612,96.322
848.5255,96.1841
849.4897,96.0443
850.4539,95.901
851.4182,95.7564
852.3824,95.616
853.3466,95.4859
854.3109,95.3709
855.2751,95.2732
856.2393,95.1921
857.2036,95.1253
858.1678,95.0705
859.1320,95.0265
860.0963,94.9935
861.0605,94.9722
862.0247,94.9626
862.9890,94.9629
863.9532,94.9703
864.9174,94.9817
865.8817,94.9945
866.8459,95.0075
867.8101,95.0216
868.7744,95.0401
869.7386,95.0687
870.7028,95.113
871.6671,95.1739
872.6313,95.2441
873.5955,95.3078
874.5598,95.3473
875.5240,95.3522
876.4882,95.3281
877.4525,95.2962
878.4167,95.2846
879.3809,95.3154
880.3452,95.3964
881.3094,95.521
882.2736,95.6758
883.2379,95.8488
884.2021,96.0314
885.1663,96.2157
886.1306,96.39
887.0948,96.5407
888.0590,96.6585
889.0233,96.7466
889.9875,96.8219
890.9517,96.9082
891.9160,97.0232
892.8802,97.1699
893.8444,97.3356
894.8087,97.5002
895.7729,97.647
896.7371,97.7698
897.7014,97.8729
898.6656,97.9652
899.6298,98.0549
900.5941,98.1454
901.5583,98.2369
902.5225,98.3295
903.4868,98.4253
904.4510,98.5285
905.4152,98.6423
906.3795,98.7657
907.3437,98.8922
908.3079,99.0117
909.2722,99.1147
910.2364,99.1965
911.2006,99.2593
912.1649,99.3102
913.1291,99.3571
914.0933,99.4051
915.0576,99.4547
916.0218,99.5033
916.9860,99.5476
917.9503,99.5846
918.9145,99.6124
919.8787,99.6302
920.8430,99.6391
921.8072,99.6429
922.7714,99.6484
923.7357,99.664
924.6999,99.6952
925.6641,99.7419
926.6284,99.7974
927.5926,99.8508
928.5568,99.8922
929.5211,99.9162
930.4853,99.9228
931.4495,99.9159
932.4138,99.9
933.3780,99.8794
934.3422,99.858
935.3065,99.8532
936.2707,99.8815
937.2349,99.918
938.1992,99.9607
939.1634,100.005
940.1276,100.045
941.0919,100.079
942.0561,100.109
943.0203,100.142
943.9846,100.182
944.9488,100.229
945.9130,100.278
946.8773,100.322
947.8415,100.352
948.8057,100.368
949.7700,100.37
950.7342,100.364
951.6984,100.355
952.6627,100.345
953.6269,100.335
954.5911,100.324
955.5554,100.308
956.5196,100.284
957.4838,100.25
958.4481,100.206
959.4123,100.151
960.3765,100.091
961.3408,100.03
962.3050,99.9726
963.2692,99.9217
964.2335,99.8784
965.1977,99.8428
966.1619,99.815
967.1262,99.7955
968.0904,99.7851
969.0546,99.7834
970.0189,99.7886
970.9831,99.7974
971.9473,99.8067
972.9116,99.8146
973.8758,99.8204
974.8400,99.8239
975.8043,99.8237
976.7685,99.8163
977.7327,99.7969
978.6970,99.7625
979.6612,99.7135
980.6254,99.6554
981.5897,99.5954
982.5539,99.5389
983.5181,99.485
984.4824,99.4268
985.4466,99.3543
986.4108,99.2597
987.3751,99.1408
988.3393,99.0018
989.3035,98.8491
990.2678,98.6874
991.2320,98.5163
992.1962,98.33
993.1605,98.1202
994.1247,97.8798
995.0889,97.6063
996.0532,97.3025
997.0174,96.9749
997.9816,96.6303
998.9459,96.2718
999.9101,95.8982
1000.8743,95.505
1001.8386,95.088
1002.8028,94.6459
1003.7670,94.18
1004.7313,93.6927
1005.6955,93.1852
1006.6597,92.6567
1007.6240,92.1069
1008.5882,91.5376
1009.5524,90.9538
1010.5167,90.3627
1011.4809,89.7723
1012.4451,89.1894
1013.4094,88.6185
1014.3736,88.0603
1015.3378,87.5123
1016.3021,86.971
1017.2663,86.4377
1018.2305,85.92
1019.1948,85.4286
1020.1590,84.9653
1021.1232,84.5116
1022.0875,84.0294
1023.0517,83.4796
1024.0160,82.8521
1024.9802,82.1864
1025.9445,81.5668
1026.9087,81.0874
1027.8729,80.8053
1028.8372,80.7096
1029.8014,80.7263
1030.7656,80.7552
1031.7299,80.718
1032.6941,80.59
1033.6583,80.4017
1034.6226,80.216
1035.5868,80.0961
1036.5510,80.0819
1037.5153,80.1805
1038.4795,80.369
1039.4437,80.6066
1040.4080,80.8482
1041.3722,81.0575
1042.3364,81.2161
1043.3007,81.3242
1044.2649,81.3932
1045.2291,81.4363
1046.1934,81.4619
1047.1576,81.4756
1048.1218,81.4863
1049.0861,81.5095
1050.0503,81.5621
1051.0145,81.6509
1051.9788,81.7636
1052.9430,81.8738
1053.9072,81.9602
1054.8715,82.0297
1055.8357,82.1265
1056.7999,82.315
1057.7642,82.6397
1058.7284,83.0838
1059.6926,83.5551
1060.6569,83.9153
1061.6211,84.0446
1062.5853,83.9091
1063.5496,83.591
1064.5138,83.2583
1065.4780,83.0867
1066.4423,83.1742
1067.4065,83.4959
1068.3707,83.9232
1069.3350,84.2944
1070.2992,84.4933
1071.2634,84.4935
1072.2277,84.3508
1073.1919,84.1579
1074.1561,83.995
1075.1204,83.905
1076.0846,83.8961
1077.0488,83.9623
1078.0131,84.1
1078.9773,84.3109
1079.9415,84.5959
1080.9058,84.9473
1081.8700,85.3473
1082.8342,85.7731
1083.7985,86.204
1084.7627,86.6271
1085.7269,87.0412
1086.6912,87.4568
1087.6554,87.8912
1088.6196,88.3602
1089.5839,88.8665
1090.5481,89.3936
1091.5123,89.9073
1092.4766,90.3686
1093.4408,90.7488
1094.4050,91.0408
1095.3693,91.258
1096.3335,91.4254
1097.2977,91.5665
1098.2620,91.6957
1099.2262,91.8175
1100.1904,91.9303
1101.1547,92.0322
1102.1189,92.1242
1103.0831,92.2101
1104.0474,92.2956
1105.0116,92.3858
1105.9758,92.4833
1106.9401,92.5872
1107.9043,92.6932
1108.8685,92.7961
1109.8328,92.8924
1110.7970,92.9816
1111.7612,93.0655
1112.7255,93.1443
1113.6897,93.2144
1114.6539,93.268
1115.6182,93.2969
1116.5824,93.297
1117.5466,93.2718
1118.5109,93.2328
1119.4751,93.1962
1120.4393,93.1786
1121.4036,93.1938
1122.3678,93.2509
1123.3320,93.3549
1124.2963,93.507
1125.2605,93.7053
1126.2247,93.9448
1127.1890,94.2179
1128.1532,94.5137
1129.1174,94.819
1130.0817,95.1199
1131.0459,95.4034
1132.0101,95.66
1132.9744,95.8848
1133.9386,96.0771
1134.9028,96.2387
1135.8671,96.3713
1136.8313,96.4756
1137.7955,96.551
1138.7598,96.5976
1139.7240,96.6175
1140.6882,96.6153
1141.6525,96.5964
1142.6167,96.566
1143.5809,96.5282
1144.5452,96.4861
1145.5094,96.4436
1146.4736,96.4054
1147.4379,96.3775
1148.4021,96.3659
1149.3663,96.3754
1150.3306,96.4096
1151.2948,96.4705
1152.2590,96.5591
1153.2233,96.6748
1154.1875,96.8157
1155.1517,96.9789
1156.1160,97.1609
1157.0802,97.3588
1158.0444,97.5697
1159.0087,97.7902
1159.9729,98.015
1160.9371,98.2365
1161.9014,98.4459
1162.8656,98.6355
1163.8298,98.8001
1164.7941,98.938
1165.7583,99.0505
1166.7225,99.1397
1167.6868,99.2072
1168.6510,99.2538
1169.6152,99.2805
1170.5795,99.289
1171.5437,99.2826
1172.5079,99.265
1173.4722,99.2386
1174.4364,99.2035
1175.4006,99.1556
1176.3649,99.032
1177.3291,98.8896
1178.2933,98.7254
1179.2576,98.5381
1180.2218,98.3264
1181.1860,98.0898
1182.1503,97.8286
1183.1145,97.5448
1184.0787,97.2427
1185.0430,96.9278
1186.0072,96.6059
1186.9714,96.2808
1187.9357,95.9538
1188.8999,95.624
1189.8641,95.2891
1190.8284,94.947
1191.7926,94.5959
1192.7568,94.2353
1193.7211,93.866
1194.6853,93.4907
1195.6495,93.114
1196.6138,92.7414
1197.5780,92.3779
1198.5422,92.0268
1199.5065,91.7633
1200.4707,91.4302
1201.4349,91.1111
1202.3992,90.8092
1203.3634,90.5289
1204.3276,90.2743
1205.2919,90.0474
1206.2561,89.8472
1207.2203,89.6711
1208.1846,89.5164
1209.1488,89.3815
1210.1130,89.2661
1211.0773,89.1694
1212.0415,89.0883
1213.0057,89.0178
1213.9700,88.952
1214.9342,88.8871
1215.8984,88.823
1216.8627,88.7631
1217.8269,88.7118
1218.7911,88.6711
1219.7554,88.6398
1220.7196,88.6138
1221.6838,88.5895
1222.6481,88.5652
1223.6123,88.542
1224.5765,88.5228
1225.5408,88.5113
1226.5050,88.5105
1227.4692,88.5231
1228.4335,88.5514
1229.3977,88.5976
1230.3619,88.6653
1231.3262,88.7603
1232.2904,88.8897
1233.2546,89.057
1234.2189,89.2546
1235.1831,89.4575
1236.1473,89.6268
1237.1116,89.7237
1238.0758,89.7303
1239.0400,89.6645
1240.0043,89.5756
1240.9685,89.5221
1241.9327,89.5389
1242.8970,89.6171
1243.8612,89.7065
1244.8254,89.7425
1245.7897,89.6802
1246.7539,89.5151
1247.7181,89.2799
1248.6824,89.0225
1249.6466,88.7806
1250.6108,88.5677
1251.5751,88.3748
1252.5393,88.1834
1253.5035,87.9784
1254.4678,87.7548
1255.4320,87.5171
1256.3962,87.2749
1257.3605,87.0392
1258.3247,86.8209
1259.2889,86.6294
1260.2532,86.4715
1261.2174,86.3495
1262.1816,86.2623
1263.1459,86.2066
1264.1101,86.1807
1265.0743,86.1854
1266.0386,86.2244
1267.0028,86.3025
1267.9670,86.4246
1268.9313,86.5948
1269.8955,86.8155
1270.8597,87.0863
1271.8240,87.4033
1272.7882,87.7585
1273.7524,88.1416
1274.7167,88.542
1275.6809,88.9512
1276.6451,89.3641
1277.6094,89.7791
1278.5736,90.197
1279.5378,90.6193
1280.5021,91.0457
1281.4663,91.4723
1282.4305,91.8922
1283.3948,92.2979
1284.3590,92.6845
1285.3232,93.052
1286.2875,93.405
1287.2517,93.75
1288.2159,94.0914
1289.1802,94.4283
1290.1444,94.7548
1291.1086,95.0624
1292.0729,95.345
1293.0371,95.6012
1294.0013,95.8348
1294.9656,96.053
1295.9298,96.2628
1296.8940,96.4685
1297.8583,96.6705
1298.8225,96.8664
1299.7867,97.0524
1300.7510,97.2252
1301.7152,97.3819
1302.6794,97.5219
1303.6437,97.6475
1304.6079,97.7622
1305.5721,97.8703
1306.5364,97.973
1307.5006,98.0678
1308.4648,98.1492
1309.4291,98.2131
1310.3933,98.2609
1311.3575,98.3002
1312.3218,98.3411
1313.2860,98.3908
1314.2502,98.4494
1315.2145,98.5124
1316.1787,98.5768
1317.1429,98.6461
1318.1072,98.7294
1319.0714,98.8344
1320.0356,98.9598
1320.9999,99.0941
1321.9641,99.2223
1322.9283,99.3338
1323.8926,99.4263
1324.8568,99.5036
1325.8210,99.5712
1326.7853,99.6326
1327.7495,99.6888
1328.7137,99.7403
1329.6780,99.7887
1330.6422,99.8351
1331.6064,99.8758
1332.5707,99.9
1333.5349,99.8903
1334.4991,99.8293
1335.4634,99.7094
1336.4276,99.5446
1337.3918,99.3806
1338.3561,99.2884
1339.3203,99.326
1340.2845,99.4902
1341.2488,99.7158
1342.2130,99.9242
1343.1772,100.067
1344.1415,100.133
1345.1057,100.13
1346.0699,100.082
1347.0342,100.012
1347.9984,99.942
1348.9626,99.8804
1349.9269,99.8229
1350.8911,99.7581
1351.8553,99.6745
1352.8196,99.5458
1353.7838,99.4098
1354.7480,99.2803
1355.7123,99.1642
1356.6765,99.0542
1357.6407,98.9313
1358.6050,98.774
1359.5692,98.5704
1360.5334,98.3338
1361.4977,98.1098
1362.4619,97.9516
1363.4261,97.8701
1364.3904,97.8234
1365.3546,97.7591
1366.3188,97.6508
1367.2831,97.5002
1368.2473,97.3234
1369.2115,97.1371
1370.1758,96.9488
1371.1400,96.7579
1372.1042,96.5658
1373.0685,96.3907
1374.0327,96.2659
1374.9969,96.2143
1375.9612,96.2245
1376.9254,96.2624
1377.8896,96.3031
1378.8539,96.3429
1379.8181,96.3888
1380.7823,96.4439
1381.7466,96.502
1382.7108,96.5547
1383.6750,96.6032
1384.6393,96.6645
1385.6035,96.7662
1386.5677,96.9227
1387.5320,97.0945
1388.4962,97.1879
1389.4604,97.1236
1390.4247,96.8929
1391.3889,96.5482
1392.3531,96.1744
1393.3174,95.8758
1394.2816,95.7578
1395.2458,95.8727
1396.2101,96.1649
1397.1743,96.4928
1398.1385,96.7204
1399.1028,96.7854
1400.0670,96.6981
1401.0313,96.5022
1401.9955,96.2433
1402.9597,95.9569
1403.9240,95.6733
1404.8882,95.4208
1405.8524,95.2168
1406.8167,95.0575
1407.7809,94.9259
1408.7451,94.8105
1409.7094,94.7116
1410.6736,94.634
1411.6378,94.576
1412.6021,94.526
1413.5663,94.4714
1414.5305,94.407
1415.4948,94.3338
1416.4590,94.2589
1417.4232,94.208
1418.3875,94.2154
1419.3517,94.2661
1420.3159,94.2862
1421.2802,94.2307
1422.2444,94.1274
1423.2086,94.0322
1424.1729,93.9785
1425.1371,93.9636
1426.1013,93.9636
1427.0656,93.9567
1428.0298,93.9381
1428.9940,93.9214
1429.9583,93.9262
1430.9225,93.9628
1431.8867,94.031
1432.8510,94.1278
1433.8152,94.2483
1434.7794,94.3808
1435.7437,94.512
1436.7079,94.619
1437.6721,94.6496
1438.6364,94.5546
1439.6006,94.3435
1440.5648,94.0672
1441.5291,93.7667
1442.4933,93.4515
1443.4575,93.1096
1444.4218,92.7267
1445.3860,92.2995
1446.3502,91.8421
1447.3145,91.3854
1448.2787,90.9655
1449.2429,90.6052
1450.2072,90.3104
1451.1714,90.0862
1452.1356,89.9425
1453.0999,89.8752
1454.0641,89.8392
1455.0283,89.7596
1455.9926,89.6398
1456.9568,89.6617
1457.9210,89.8959
1458.8853,90.0882
1459.8495,90.0885
1460.8137,89.9875
1461.7780,89.9145
1462.7422,89.9454
1463.7064,90.1183
1464.6707,90.4438
1465.6349,90.8704
1466.5991,91.2993
1467.5634,91.6769
1468.5276,92.0203
1469.4918,92.3578
1470.4561,92.6872
1471.4203,93.0058
1472.3845,93.3734
1473.3488,93.8649
1474.3130,94.4154
1475.2772,94.8668
1476.2415,95.1444
1477.2057,95.2691
1478.1699,95.2862
1479.1342,95.2306
1480.0984,95.1246
1481.0626,94.9809
1482.0269,94.8033
1482.9911,94.5873
1483.9553,94.324
1484.9196,93.9978
1485.8838,93.5821
1486.8480,93.055
1487.8123,92.4612
1488.7765,91.9602
1489.7407,91.6976
1490.7050,91.6166
1491.6692,91.557
1492.6334,91.4383
1493.5977,91.2546
1494.5619,91.0027
1495.5261,90.6687
1496.4904,90.272
1497.4546,89.8859
1498.4188,89.5585
1499.3831,89.2602
1500.3473,88.9688
1501.3115,88.7228
1502.2758,88.5686
1503.2400,88.4823
1504.2042,88.3022
1505.1685,87.7197
1506.1327,86.5369
1507.0969,85.2317
1508.0612,84.5639
1509.0254,84.4404
1509.9896,84.4452
1510.9539,84.4464
1511.9181,84.4706
1512.8823,84.5683
1513.8466,84.7929
1514.8108,85.202
1515.7750,85.8286
1516.7393,86.646
1517.7035,87.584
1518.6677,88.5986
1519.6320,89.7099
1520.5962,90.9439
1521.5604,92.2265
1522.5247,93.392
1523.4889,94.3393
1524.4531,95.1195
1525.4174,95.8496
1526.3816,96.5826
1527.3458,97.273
1528.3101,97.8473
1529.2743,98.2783
1530.2385,98.5905
1531.2028,98.8285
1532.1670,99.0382
1533.1312,99.2545
1534.0955,99.481
1535.0597,99.7042
1536.0239,99.9279
1536.9882,100.138
1537.9524,100.219
1538.9166,99.9575
1539.8809,99.3068
1540.8451,98.7498
1541.8093,98.7578
1542.7736,99.104
1543.7378,99.4471
1544.7020,99.6877
1545.6663,99.8242
1546.6305,99.864
1547.5947,99.8241
1548.5590,99.7342
1549.5232,99.6234
1550.4874,99.506
1551.4517,99.3823
1552.4159,99.2904
1553.3801,99.2244
1554.3444,99.2207
1555.3086,99.286
1556.2728,99.3627
1557.2371,99.3981
1558.2013,99.5295
1559.1655,99.8377
1560.1298,99.921
1561.0940,99.5732
1562.0582,99.0247
1563.0225,98.5275
1563.9867,98.1901
1564.9509,98.0064
1565.9152,97.9074
1566.8794,97.8069
1567.8436,97.6474
1568.8079,97.4317
1569.7721,97.2
1570.7363,96.982
1571.7006,96.7909
1572.6648,96.6265
1573.6290,96.4545
1574.5933,96.2106
1575.5575,95.8728
1576.5217,95.5168
1577.4860,95.2133
1578.4502,94.9415
1579.4144,94.6716
1580.3787,94.4098
1581.3429,94.1639
1582.3071,93.9265
1583.2714,93.6869
1584.2356,93.4439
1585.1998,93.2034
1586.1641,92.9722
1587.1283,92.7548
1588.0925,92.5547
1589.0568,92.3749
1590.0210,92.2162
1590.9852,92.0771
1591.9495,91.9573
1592.9137,91.862
1593.8779,91.8009
1594.8422,91.7808
1595.8064,91.7955
1596.7706,91.8251
1597.7349,91.8464
1598.6991,91.8459
1599.6633,91.8263
1600.6276,91.8046
1601.5918,91.802
1602.5560,91.83
1603.5203,91.8828
1604.4845,91.9434
1605.4487,91.9989
1606.4130,92.0516
1607.3772,92.1187
1608.3414,92.219
1609.3057,92.3543
1610.2699,92.5059
1611.2341,92.6567
1612.1984,92.81
1613.1626,92.9787
1614.1268,93.1675
1615.0911,93.3809
1616.0553,93.6323
1617.0195,93.8947
1617.9838,94.081
1618.9480,94.1543
1619.9122,94.1744
1620.8765,94.222
1621.8407,94.3376
1622.8049,94.5169
1623.7692,94.7275
1624.7334,94.929
1625.6976,95.1006
1626.6619,95.2501
1627.6261,95.3909
1628.5903,95.5222
1629.5546,95.6404
1630.5188,95.7607
1631.4830,95.907
1632.4473,96.0696
1633.4115,96.1739
1634.3757,96.1315
1635.3400,95.9854
1636.3042,95.9034
1637.2684,95.9117
1638.2327,95.9012
1639.1969,95.8414
1640.1611,95.7809
1641.1254,95.768
1642.0896,95.8143
1643.0538,95.8787
1644.0181,95.8633
1644.9823,95.6649
1645.9465,95.3119
1646.9108,95.0109
1647.8750,94.932
1648.8392,95.0862
1649.8035,95.4233
1650.7677,95.8442
1651.7319,96.1685
1652.6962,96.2673
1653.6604,96.2106
1654.6246,95.9986
1655.5889,95.5819
1656.5531,95.1049
1657.5173,94.7391
1658.4816,94.5423
1659.4458,94.4665
1660.4100,94.4206
1661.3743,94.3436
1662.3385,94.2397
1663.3027,94.1356
1664.2670,94.0408
1665.2312,93.9545
1666.1954,93.8653
1667.1597,93.7377
1668.1239,93.5408
1669.0881,93.3098
1670.0524,93.1439
1671.0166,93.1014
1671.9808,93.1603
1672.9451,93.2764
1673.9093,93.4055
1674.8735,93.4866
1675.8378,93.4513
1676.8020,93.2718
1677.7662,93.0006
1678.7305,92.7479
1679.6947,92.613
1680.6589,92.6263
1681.6232,92.7409
1682.5874,92.8877
1683.5516,93.0508
1684.5159,93.1962
1685.4801,93.1966
1686.4443,93.0147
1687.4086,92.7639
1688.3728,92.5718
1689.3370,92.5
1690.3013,92.5462
1691.2655,92.6692
1692.2297,92.8074
1693.1940,92.8871
1694.1582,92.8387
1695.1224,92.6369
1696.0867,92.3523
1697.0509,92.1523
1698.0151,92.1872
1698.9794,92.425
1699.9436,92.6381
1700.9078,92.6102
1701.8721,92.3182
1702.8363,91.9028
1703.8005,91.5362
1704.7648,91.3302
1705.7290,91.3065
1706.6932,91.4029
1707.6575,91.5191
1708.6217,91.5855
1709.5859,91.5961
1710.5502,91.5836
1711.5144,91.5775
1712.4786,91.5819
1713.4429,91.5807
1714.4071,91.5733
1715.3713,91.6423
1716.3356,91.9669
1717.2998,92.5993
1718.2640,93.2642
1719.2283,93.6762
1720.1925,93.8361
1721.1567,93.9078
1722.1210,94.0322
1723.0852,94.2632
1724.0494,94.5761
1725.0137,94.9028
1725.9779,95.1773
1726.9421,95.3713
1727.9064,95.5037
1728.8706,95.6234
1729.8348,95.781
1730.7991,96.0101
1731.7633,96.3293
1732.7275,96.746
1733.6918,97.2041
1734.6560,97.547
1735.6202,97.6639
1736.5845,97.6144
1737.5487,97.5364
1738.5129,97.5188
1739.4772,97.5668
1740.4414,97.6307
1741.4056,97.6546
1742.3699,97.6155
1743.3341,97.5311
1744.2983,97.4386
1745.2626,97.3677
1746.2268,97.3331
1747.1910,97.3505
1748.1553,97.4596
1749.1195,97.7072
1750.0837,98.0704
1751.0480,98.4265
1752.0122,98.6575
1752.9764,98.7443
1753.9407,98.742
1754.9049,98.713
1755.8691,98.6933
1756.8334,98.6934
1757.7976,98.7112
1758.7618,98.7441
1759.7261,98.794
1760.6903,98.8644
1761.6545,98.9511
1762.6188,99.0368
1763.5830,99.1022
1764.5472,99.1421
1765.5115,99.1669
1766.4757,99.1862
1767.4399,99.1966
1768.4042,99.1838
1769.3684,99.1392
1770.3326,99.0839
1771.2969,99.0739
1772.2611,99.1505
1773.2253,99.2747
1774.1896,99.3616
1775.1538,99.376
1776.1180,99.3499
1777.0823,99.3295
1778.0465,99.3376
1779.0107,99.3732
1779.9750,99.4292
1780.9392,99.5037
1781.9034,99.597
1782.8677,99.7025
1783.8319,99.8018
1784.7961,99.8695
1785.7604,99.8906
1786.7246,99.8733
1787.6888,99.8438
1788.6531,99.8222
1789.6173,99.8043
1790.5815,99.775
1791.5458,99.7406
1792.5100,99.7237
1793.4742,99.7162
1794.4385,99.6909
1795.4027,99.6525
1796.3669,99.6325
1797.3312,99.6501
1798.2954,99.6984
1799.2596,99.7599
1800.2239,99.8251
1801.1881,99.8918
1802.1523,99.9546
1803.1166,100.004
1804.0808,100.033
1805.0450,100.041
1806.0093,100.027
1806.9735,99.9917
1807.9377,99.9415
1808.9020,99.8934
1809.8662,99.8725
1810.8304,99.8958
1811.7947,99.9574
1812.7589,100.034
1813.7231,100.105
1814.6874,100.159
1815.6516,100.194
1816.6158,100.21
1817.5801,100.208
1818.5443,100.191
1819.5085,100.166
1820.4728,100.141
1821.4370,100.12
1822.4012,100.102
1823.3655,100.083
1824.3297,100.056
1825.2939,100.015
1826.2582,99.9597
1827.2224,99.8996
1828.1866,99.8593
1829.1509,99.8663
1830.1151,99.9252
1831.0793,100.006
1832.0436,100.062
1833.0078,100.072
1833.9720,100.052
1834.9363,100.026
1835.9005,100.006
1836.8647,99.9934
1837.8290,99.9876
1838.7932,99.9937
1839.7574,100.02
1840.7217,100.067
1841.6859,100.115
1842.6501,100.136
1843.6144,100.121
1844.5786,100.09
1845.5428,100.056
1846.5071,100.026
1847.4713,100.01
1848.4355,100.026
1849.3998,100.075
1850.3640,100.143
1851.3282,100.204
1852.2925,100.241
1853.2567,100.251
1854.2209,100.243
1855.1852,100.224
1856.1494,100.201
1857.1136,100.178
1858.0779,100.161
1859.0421,100.155
1860.0063,100.158
1860.9706,100.161
1861.9348,100.148
1862.8990,100.108
1863.8633,100.037
1864.8275,99.9401
1865.7917,99.828
1866.7560,99.7302
1867.7202,99.6984
1868.6844,99.7711
1869.6487,99.9193
1870.6129,100.066
1871.5771,100.161
1872.5414,100.207
1873.5056,100.226
1874.4698,100.237
1875.4341,100.245
1876.3983,100.249
1877.3625,100.249
1878.3268,100.246
1879.2910,100.243
1880.2552,100.238
1881.2195,100.228
1882.1837,100.211
1883.1479,100.187
1884.1122,100.16
1885.0764,100.134
1886.0406,100.113
1887.0049,100.099
1887.9691,100.093
1888.9333,100.097
1889.8976,100.104
1890.8618,100.103
1891.8260,100.088
1892.7903,100.063
1893.7545,100.04
1894.7188,100.035
1895.6830,100.052
1896.6472,100.089
1897.6115,100.129
1898.5757,100.157
1899.5399,100.167
1900.5042,100.162
1901.4684,100.15
1902.4326,100.134
1903.3969,100.115
1904.3611,100.087
1905.3253,100.044
1906.2896,99.9889
1907.2538,99.9347
1908.2180,99.9002
1909.1823,99.8999
1910.1465,99.9319
1911.1107,99.9784
1912.0750,100.019
1913.0392,100.046
1914.0034,100.062
1914.9677,100.072
1915.9319,100.077
1916.8961,100.071
1917.8604,100.045
1918.8246,99.9916
1919.7888,99.9153
1920.7531,99.8373
1921.7173,99.787
1922.6815,99.7858
1923.6458,99.8339
1924.6100,99.9087
1925.5742,99.9804
1926.5385,100.029
1927.5027,100.051
1928.4669,100.054
1929.4312,100.046
1930.3954,100.034
1931.3596,100.024
1932.3239,100.018
1933.2881,100.02
1934.2523,100.028
1935.2166,100.04
1936.1808,100.047
1937.1450,100.042
1938.1093,100.02
1939.0735,99.9813
1940.0377,99.9297
1941.0020,99.8762
1941.9662,99.8373
1942.9304,99.8266
1943.8947,99.8447
1944.8589,99.8819
1945.8231,99.9274
1946.7874,99.9751
1947.7516,100.021
1948.7158,100.06
1949.6801,100.087
1950.6443,100.099
1951.6085,100.098
1952.5728,100.091
1953.5370,100.084
1954.5012,100.083
1955.4655,100.088
1956.4297,100.098
1957.3939,100.108
1958.3582,100.116
1959.3224,100.121
1960.2866,100.122
1961.2509,100.116
1962.2151,100.099
1963.1793,100.07
1964.1436,100.031
1965.1078,99.9942
1966.0720,99.9743
1967.0363,99.9831
1968.0005,100.02
1968.9647,100.072
1969.9290,100.122
1970.8932,100.157
1971.8574,100.175
1972.8217,100.18
1973.7859,100.18
1974.7501,100.179
1975.7144,100.179
1976.6786,100.18
1977.6428,100.179
1978.6071,100.177
1979.5713,100.176
1980.5355,100.176
1981.4998,100.177
1982.4640,100.176
1983.4282,100.17
1984.3925,100.154
1985.3567,100.131
1986.3209,100.1
1987.2852,100.066
1988.2494,100.032
1989.2136,100.002
1990.1779,99.9832
1991.1421,99.9818
1992.1063,100.001
1993.0706,100.035
1994.0348,100.074
1994.9990,100.107
1995.9633,100.131
1996.9275,100.144
1997.8917,100.151
1998.8560,100.156
1999.8202,100.161
2000.7844,100.167
2001.7487,100.172
2002.7129,100.174
2003.6771,100.171
2004.6414,100.163
2005.6056,100.152
2006.5698,100.14
2007.5341,100.131
2008.4983,100.128
2009.4625,100.132
2010.4268,100.139
2011.3910,100.142
2012.3552,100.136
2013.3195,100.114
2014.2837,100.08
2015.2479,100.043
2016.2122,100.015
2017.1764,100.008
2018.1406,100.022
2019.1049,100.05
2020.0691,100.08
2021.0333,100.102
2021.9976,100.113
2022.9618,100.116
2023.9260,100.115
2024.8903,100.116
2025.8545,100.12
2026.8187,100.126
2027.7830,100.131
2028.7472,100.133
2029.7114,100.129
2030.6757,100.123
2031.6399,100.115
2032.6041,100.108
2033.5684,100.105
2034.5326,100.104
2035.4968,100.103
2036.4611,100.096
2037.4253,100.082
2038.3895,100.06
2039.3538,100.035
2040.3180,100.015
2041.2822,100.008
2042.2465,100.015
2043.2107,100.032
2044.1749,100.051
2045.1392,100.066
2046.1034,100.073
2047.0676,100.073
2048.0320,100.067
2048.9961,100.059
2049.9604,100.053
2050.9246,100.049
2051.8889,100.049
2052.8530,100.051
2053.8174,100.054
2054.7815,100.055
2055.7458,100.053
2056.7100,100.048
2057.6743,100.041
2058.6384,100.032
2059.6028,100.021
2060.5669,100.005
2061.5313,99.9856
2062.4954,99.966
2063.4597,99.9524
2064.4238,99.9509
2065.3882,99.9636
2066.3523,99.9867
2067.3167,100.012
2068.2808,100.033
2069.2451,100.044
2070.2092,100.045
2071.1736,100.041
2072.1377,100.034
2073.1021,100.028
2074.0662,100.023
2075.0305,100.021
2075.9946,100.019
2076.9590,100.018
2077.9231,100.017
2078.8875,100.015
2079.8516,100.012
2080.8159,100.007
2081.7800,100.001
2082.7444,99.9952
2083.7085,99.9907
2084.6729,99.9872
2085.6370,99.984
2086.6013,99.9809
2087.5654,99.9784
2088.5298,99.9771
2089.4939,99.9774
2090.4583,99.9789
2091.4224,99.9807
2092.3867,99.9817
2093.3508,99.9815
2094.3152,99.9808
2095.2793,99.98
2096.2437,99.9796
2097.2078,99.9791
2098.1721,99.9779
2099.1362,99.9753
2100.1006,99.9698
2101.0647,99.9652
2102.0291,99.9605
2102.9932,99.9563
2103.9575,99.9529
2104.9216,99.9502
2105.8860,99.9478
2106.8501,99.9453
2107.8145,99.9419
2108.7786,99.9366
2109.7429,99.9286
2110.7070,99.9181
2111.6714,99.9065
2112.6355,99.8972
2113.5999,99.8934
2114.5640,99.8972
2115.5283,99.9074
2116.4924,99.9201
2117.4568,99.9304
2118.4209,99.9343
2119.3853,99.9312
2120.3494,99.9233
2121.3137,99.9147
2122.2778,99.909
2123.2422,99.9079
2124.2063,99.9107
2125.1707,99.9155
2126.1348,99.9204
2127.0991,99.924
2128.0632,99.9261
2129.0276,99.9271
2129.9917,99.9271
2130.9561,99.9258
2131.9202,99.9228
2132.8845,99.9181
2133.8486,99.9124
2134.8130,99.907
2135.7771,99.9041
2136.7415,99.9053
2137.7056,99.9111
2138.6699,99.9206
2139.6340,99.9314
2140.5984,99.941
2141.5625,99.9472
2142.5269,99.9495
2143.4910,99.949
2144.4553,99.948
2145.4194,99.9487
2146.3838,99.9519
2147.3479,99.9571
2148.3123,99.9621
2149.2764,99.9647
2150.2407,99.9635
2151.2048,99.9587
2152.1692,99.9523
2153.1333,99.947
2154.0977,99.9452
2155.0618,99.9479
2156.0261,99.9543
2156.9902,99.9619
2157.9546,99.9679
2158.9187,99.9703
2159.8831,99.9687
2160.8472,99.9643
2161.8115,99.9592
2162.7756,99.955
2163.7400,99.9527
2164.7041,99.9519
2165.6685,99.9517
2166.6326,99.9516
2167.5969,99.9512
2168.5610,99.9509
2169.5254,99.9509
2170.4895,99.9511
2171.4539,99.9514
2172.4180,99.9516
2173.3823,99.9517
2174.3464,99.9519
2175.3108,99.9524
2176.2749,99.9533
2177.2393,99.9541
2178.2034,99.9544
2179.1677,99.9537
2180.1318,99.9516
2181.0962,99.948
2182.0603,99.9434
2183.0247,99.9387
2183.9888,99.9351
2184.9531,99.9337
2185.9172,99.9349
2186.8816,99.9385
2187.8457,99.9432
2188.8101,99.9478
2189.7742,99.9514
2190.7385,99.9536
2191.7026,99.9547
2192.6670,99.9554
2193.6311,99.9557
2194.5955,99.9556
2195.5596,99.9545
2196.5239,99.9519
2197.4880,99.948
2198.4524,99.9432
2199.4165,99.9383
2200.3809,99.9343
2201.3450,99.9319
2202.3093,99.9313
2203.2734,99.9324
2204.2378,99.9348
2205.2019,99.9381
2206.1663,99.9421
2207.1304,99.946
2208.0947,99.9492
2209.0588,99.9505
2210.0232,99.9492
2210.9873,99.9449
2211.9517,99.9384
2212.9158,99.9313
2213.8801,99.9253
2214.8442,99.9218
2215.8086,99.9206
2216.7727,99.9205
2217.7371,99.9198
2218.7012,99.9172
2219.6655,99.9127
2220.6296,99.9074
2221.5940,99.9029
2222.5581,99.9005
2223.5225,99.9006
2224.4866,99.9026
2225.4509,99.9044
2226.4150,99.9039
2227.3794,99.8994
2228.3435,99.8899
2229.3079,99.8755
2230.2720,99.8581
2231.2363,99.8404
2232.2004,99.8252
2233.1648,99.8142
2234.1289,99.8075
2235.0933,99.8039
2236.0574,99.8011
2237.0217,99.7972
2237.9858,99.7914
2238.9502,99.7836
2239.9143,99.7744
2240.8787,99.7644
2241.8428,99.7533
2242.8071,99.7411
2243.7712,99.728
2244.7356,99.7145
2245.6997,99.7017
2246.6641,99.6898
2247.6282,99.6783
2248.5925,99.6657
2249.5566,99.6506
2250.5210,99.6324
2251.4851,99.6123
2252.4495,99.5922
2253.4136,99.574
2254.3779,99.5586
2255.3420,99.5454
2256.3064,99.5327
2257.2705,99.5192
2258.2349,99.504
2259.1990,99.4876
2260.1633,99.4707
2261.1274,99.4545
2262.0918,99.4402
2263.0559,99.4284
2264.0203,99.4197
2264.9844,99.4139
2265.9487,99.4104
2266.9128,99.4075
2267.8772,99.4038
2268.8413,99.3982
2269.8057,99.3908
2270.7698,99.3828
2271.7341,99.3755
2272.6982,99.3701
2273.6626,99.3672
2274.6267,99.3673
2275.5911,99.3711
2276.5552,99.3798
2277.5195,99.3936
2278.4836,99.4115
2279.4480,99.431
2280.4121,99.4482
2281.3765,99.4588
2282.3406,99.4594
2283.3049,99.4479
2284.2690,99.4235
2285.2334,99.3873
2286.1975,99.342
2287.1619,99.291
2288.1260,99.2373
2289.0903,99.1821
2290.0544,99.1253
2291.0188,99.0673
2291.9829,99.0107
2292.9473,98.9606
2293.9114,98.9227
2294.8757,98.9004
2295.8398,98.8925
2296.8042,98.8953
2297.7683,98.906
2298.7327,98.9257
2299.6968,98.9595
2300.6611,99.0129
2301.6252,99.0854
2302.5896,99.1679
2303.5537,99.2443
2304.5181,99.2981
2305.4822,99.3209
2306.4465,99.3186
2307.4106,99.3118
2308.3750,99.3281
2309.3391,99.3899
2310.3035,99.5035
2311.2676,99.6548
2312.2319,99.8162
2313.1960,99.9611
2314.1604,100.078
2315.1245,100.174
2316.0889,100.273
2317.0530,100.394
2318.0173,100.544
2318.9814,100.706
2319.9458,100.835
2320.9099,100.878
2321.8743,100.789
2322.8384,100.567
2323.8027,100.257
2324.7668,99.9448
2325.7312,99.7184
2326.6953,99.6353
2327.6597,99.6988
2328.6238,99.8544
2329.5881,100.014
2330.5522,100.083
2331.5166,100.015
2332.4807,99.8295
2333.4451,99.5961
2334.4092,99.3918
2335.3735,99.2627
2336.3376,99.2062
2337.3020,99.1799
2338.2661,99.1285
2339.2305,99.0175
2340.1946,98.8624
2341.1589,98.7441
2342.1230,98.792
2343.0874,99.0844
2344.0515,99.495
2345.0159,99.7239
2345.9800,99.591
2346.9443,99.2047
2347.9084,98.8267
2348.8728,98.6706
2349.8369,98.8006
2350.8013,99.1219
2351.7654,99.4334
2352.7297,99.5438
2353.6938,99.4053
2354.6582,99.1293
2355.6223,98.8376
2356.5867,98.551
2357.5508,98.2526
2358.5151,97.984
2359.4792,97.8267
2360.4436,97.811
2361.4077,97.8926
2362.3721,98.0224
2363.3362,98.2054
2364.3005,98.4819
2365.2646,98.871
2366.2290,99.3432
2367.1931,99.8394
2368.1575,100.304
2369.1216,100.703
2370.0859,101.024
2371.0500,101.268
2372.0144,101.439
2372.9785,101.538
2373.9429,101.555
2374.9070,101.484
2375.8713,101.319
2376.8354,101.073
2377.7998,100.773
2378.7639,100.453
2379.7283,100.153
2380.6924,99.901
2381.6567,99.7159
2382.6208,99.602
2383.5852,99.5524
2384.5493,99.5519
2385.5137,99.5817
2386.4778,99.6238
2387.4421,99.6643
2388.4063,99.6952
2389.3706,99.7139
2390.3347,99.7218
2391.2991,99.7227
2392.2632,99.7207
2393.2275,99.7188
2394.1917,99.7189
2395.1560,99.7215
2396.1201,99.7266
2397.0845,99.7336
2398.0486,99.7412
2399.0129,99.7488
2399.9771,99.7553
2400.9414,99.7595
2401.9055,99.7603
2402.8699,99.7578
2403.8340,99.7531
2404.7983,99.7485
2405.7625,99.7463
2406.7268,99.7475
2407.6909,99.7515
2408.6553,99.7561
2409.6194,99.7594
2410.5837,99.7607
2411.5479,99.7611
2412.5122,99.762
2413.4763,99.7644
2414.4407,99.7678
2415.4048,99.7707
2416.3691,99.7726
2417.3333,99.7742
2418.2976,99.7768
2419.2617,99.7812
2420.2261,99.7866
2421.1902,99.7908
2422.1545,99.7924
2423.1187,99.7918
2424.0830,99.7914
2425.0471,99.7946
2426.0115,99.8027
2426.9756,99.8144
2427.9399,99.8268
2428.9041,99.8368
2429.8684,99.8434
2430.8325,99.8475
2431.7969,99.8505
2432.7610,99.8528
2433.7253,99.8535
2434.6895,99.8512
2435.6538,99.8459
2436.6179,99.8398
2437.5823,99.8362
2438.5464,99.838
2439.5107,99.8455
2440.4749,99.8567
2441.4392,99.8681
2442.4033,99.877
2443.3677,99.8822
2444.3318,99.8848
2445.2961,99.8864
2446.2603,99.8882
2447.2246,99.8904
2448.1887,99.892
2449.1531,99.8921
2450.1172,99.8905
2451.0815,99.8884
2452.0457,99.8876
2453.0100,99.8898
2453.9741,99.8953
2454.9385,99.9025
2455.9026,99.9088
2456.8669,99.9119
2457.8311,99.9111
2458.7954,99.9076
2459.7595,99.904
2460.7239,99.9026
2461.6880,99.9045
2462.6523,99.9093
2463.6165,99.9157
2464.5808,99.9221
2465.5449,99.9273
2466.5093,99.9303
2467.4734,99.9307
2468.4377,99.9286
2469.4019,99.9251
2470.3662,99.922
2471.3303,99.9215
2472.2947,99.9247
2473.2588,99.9311
2474.2231,99.9385
2475.1873,99.9441
2476.1516,99.9461
2477.1157,99.9449
2478.0801,99.9425
2479.0442,99.9414
2480.0085,99.943
2480.9727,99.9469
2481.9370,99.9516
2482.9011,99.9551
2483.8655,99.9566
2484.8296,99.9562
2485.7939,99.9554
2486.7581,99.9555
2487.7224,99.9578
2488.6865,99.9626
2489.6509,99.9694
2490.6150,99.9769
2491.5793,99.9835
2492.5435,99.9876
2493.5078,99.9887
2494.4719,99.9877
2495.4363,99.9868
2496.4004,99.9881
2497.3647,99.9926
2498.3289,99.9993
2499.2932,100.006
2500.2573,100.011
2501.2217,100.013
2502.1858,100.014
2503.1501,100.016
2504.1143,100.021
2505.0786,100.029
2506.0427,100.039
2507.0071,100.047
2507.9712,100.052
2508.9355,100.052
2509.8997,100.047
2510.8640,100.04
2511.8281,100.031
2512.7925,100.026
2513.7566,100.025
2514.7209,100.03
2515.6851,100.041
2516.6494,100.055
2517.6135,100.068
2518.5779,100.078
2519.5420,100.083
2520.5063,100.084
2521.4705,100.082
2522.4348,100.079
2523.3989,100.078
2524.3633,100.078
2525.3274,100.08
2526.2917,100.082
2527.2559,100.084
2528.2202,100.085
2529.1843,100.088
2530.1487,100.09
2531.1128,100.093
2532.0771,100.095
2533.0413,100.098
2534.0056,100.1
2534.9697,100.102
2535.9341,100.104
2536.8982,100.105
2537.8625,100.107
2538.8267,100.109
2539.7910,100.111
2540.7551,100.114
2541.7195,100.116
2542.6836,100.118
2543.6479,100.122
2544.6121,100.125
2545.5764,100.13
2546.5405,100.135
2547.5049,100.14
2548.4690,100.144
2549.4333,100.147
2550.3975,100.148
2551.3618,100.149
2552.3259,100.151
2553.2903,100.155
2554.2544,100.159
2555.2188,100.164
2556.1829,100.168
2557.1472,100.17
2558.1113,100.172
2559.0757,100.175
2560.0398,100.18
2561.0042,100.185
2561.9683,100.189
2562.9326,100.19
2563.8967,100.188
2564.8611,100.186
2565.8252,100.186
2566.7896,100.19
2567.7537,100.197
2568.7180,100.206
2569.6821,100.213
2570.6465,100.216
2571.6106,100.215
2572.5750,100.21
2573.5391,100.205
2574.5034,100.201
2575.4675,100.198
2576.4319,100.198
2577.3960,100.201
2578.3604,100.206
2579.3245,100.213
2580.2888,100.22
2581.2529,100.225
2582.2173,100.226
2583.1814,100.225
2584.1458,100.222
2585.1099,100.22
2586.0742,100.22
2587.0383,100.223
2588.0027,100.228
2588.9668,100.233
2589.9312,100.237
2590.8953,100.239
2591.8596,100.238
2592.8237,100.235
2593.7881,100.233
2594.7522,100.231
2595.7166,100.231
2596.6807,100.232
2597.6450,100.233
2598.6091,100.233
2599.5735,100.233
2600.5376,100.234
2601.5020,100.237
2602.4661,100.241
2603.4304,100.245
2604.3945,100.248
2605.3589,100.249
2606.3230,100.25
2607.2874,100.253
2608.2515,100.259
2609.2158,100.266
2610.1799,100.275
2611.1443,100.281
2612.1084,100.283
2613.0728,100.282
2614.0369,100.279
2615.0012,100.276
2615.9653,100.274
2616.9297,100.273
2617.8938,100.274
2618.8582,100.276
2619.8223,100.281
2620.7866,100.286
2621.7507,100.293
2622.7151,100.299
2623.6792,100.305
2624.6436,100.308
2625.6077,100.308
2626.5720,100.306
2627.5361,100.302
2628.5005,100.297
2629.4646,100.293
2630.4290,100.289
2631.3931,100.287
2632.3574,100.286
2633.3215,100.285
2634.2859,100.286
2635.2500,100.286
2636.2144,100.288
2637.1785,100.292
2638.1428,100.296
2639.1069,100.302
2640.0713,100.308
2641.0354,100.314
2641.9998,100.317
2642.9639,100.318
2643.9282,100.316
2644.8923,100.313
2645.8567,100.311
2646.8208,100.311
2647.7852,100.314
2648.7493,100.318
2649.7136,100.319
2650.6777,100.317
2651.6421,100.313
2652.6062,100.308
2653.5706,100.306
2654.5347,100.307
2655.4990,100.313
2656.4631,100.322
2657.4275,100.329
2658.3916,100.334
2659.3560,100.336
2660.3201,100.335
2661.2844,100.332
2662.2485,100.328
2663.2129,100.326
2664.1770,100.326
2665.1414,100.329
2666.1055,100.334
2667.0698,100.341
2668.0339,100.347
2668.9983,100.353
2669.9624,100.359
2670.9268,100.365
2671.8909,100.37
2672.8552,100.375
2673.8193,100.38
2674.7837,100.383
2675.7478,100.386
2676.7122,100.388
2677.6763,100.39
2678.6406,100.39
2679.6047,100.387
2680.5691,100.382
2681.5332,100.375
2682.4976,100.37
2683.4617,100.368
2684.4260,100.368
2685.3901,100.371
2686.3545,100.372
2687.3186,100.37
2688.2830,100.364
2689.2471,100.357
2690.2114,100.351
2691.1755,100.348
2692.1399,100.35
2693.1040,100.355
2694.0684,100.361
2695.0325,100.364
2695.9968,100.363
2696.9609,100.358
2697.9253,100.351
2698.8894,100.344
2699.8538,100.339
2700.8179,100.335
2701.7822,100.33
2702.7463,100.323
2703.7107,100.315
2704.6748,100.305
2705.6392,100.296
2706.6033,100.287
2707.5676,100.279
2708.5317,100.271
2709.4961,100.265
2710.4602,100.26
2711.4246,100.256
2712.3887,100.253
2713.3530,100.249
2714.3171,100.241
2715.2815,100.23
2716.2456,100.216
2717.2100,100.203
2718.1741,100.193
2719.1384,100.187
2720.1025,100.185
2721.0669,100.186
2722.0310,100.187
2722.9954,100.185
2723.9595,100.182
2724.9238,100.177
2725.8879,100.172
2726.8523,100.168
2727.8164,100.165
2728.7808,100.162
2729.7449,100.157
2730.7092,100.152
2731.6733,100.144
2732.6377,100.136
2733.6018,100.125
2734.5662,100.112
2735.5303,100.097
2736.4946,100.081
2737.4587,100.066
2738.4231,100.055
2739.3872,100.049
2740.3516,100.049
2741.3157,100.053
2742.2800,100.057
2743.2441,100.061
2744.2085,100.065
2745.1726,100.067
2746.1370,100.068
2747.1011,100.067
2748.0654,100.062
2749.0295,100.054
2749.9939,100.045
2750.9580,100.036
2751.9224,100.032
2752.8865,100.033
2753.8508,100.037
2754.8149,100.04
2755.7793,100.04
2756.7434,100.034
2757.7078,100.023
2758.6719,100.01
2759.6362,99.9969
2760.6003,99.9869
2761.5647,99.9804
2762.5288,99.9769
2763.4932,99.975
2764.4573,99.9737
2765.4216,99.973
2766.3857,99.9737
2767.3501,99.9764
2768.3142,99.9811
2769.2786,99.9861
2770.2427,99.9886
2771.2070,99.9859
2772.1711,99.977
2773.1355,99.9635
2774.0996,99.9491
2775.0640,99.9379
2776.0281,99.9318
2776.9924,99.9296
2777.9565,99.9273
2778.9209,99.9206
2779.8850,99.907
2780.8494,99.8874
2781.8135,99.8652
2782.7778,99.8446
2783.7419,99.8288
2784.7063,99.8184
2785.6704,99.8123
2786.6348,99.807
2787.5989,99.7983
2788.5632,99.7858
2789.5273,99.7681
2790.4917,99.7456
2791.4558,99.7201
2792.4202,99.6943
2793.3843,99.6706
2794.3486,99.6498
2795.3127,99.6313
2796.2771,99.6134
2797.2412,99.5945
2798.2056,99.5737
2799.1697,99.5512
2800.1340,99.5275
2801.0981,99.5034
2802.0625,99.4796
2803.0266,99.4574
2803.9910,99.4375
2804.9551,99.4204
2805.9194,99.4044
2806.8835,99.3867
2807.8479,99.3637
2808.8120,99.3333
2809.7764,99.296
2810.7405,99.2543
2811.7048,99.2118
2812.6689,99.1709
2813.6333,99.1319
2814.5974,99.0934
2815.5618,99.0531
2816.5259,99.0089
2817.4902,98.9593
2818.4543,98.9032
2819.4187,98.84
2820.3828,98.7699
2821.3472,98.6944
2822.3113,98.6157
2823.2756,98.5359
2824.2397,98.4561
2825.2041,98.3759
2826.1682,98.2935
2827.1326,98.2067
2828.0967,98.1137
2829.0610,98.0143
2830.0251,97.9094
2830.9895,97.8011
2831.9536,97.6913
2832.9180,97.5817
2833.8821,97.4725
2834.8464,97.363
2835.8105,97.2521
2836.7749,97.1401
2837.7390,97.0285
2838.7034,96.9207
2839.6675,96.8204
2840.6318,96.7308
2841.5959,96.6532
2842.5603,96.587
2843.5244,96.5298
2844.4888,96.477
2845.4529,96.423
2846.4172,96.3616
2847.3813,96.2878
2848.3457,96.199
2849.3098,96.0961
2850.2742,95.982
2851.2383,95.8604
2852.2026,95.7339
2853.1667,95.6035
2854.1311,95.4694
2855.0952,95.3314
2856.0596,95.1896
2857.0237,95.0434
2857.9880,94.8905
2858.9521,94.7276
2859.9165,94.5516
2860.8806,94.3614
2861.8450,94.1596
2862.8091,93.9524
2863.7734,93.7485
2864.7375,93.5565
2865.7019,93.3828
2866.6660,93.2299
2867.6304,93.0969
2868.5945,92.9805
2869.5588,92.8768
2870.5229,92.7823
2871.4873,92.6939
2872.4514,92.6081
2873.4158,92.5204
2874.3799,92.425
2875.3442,92.3158
2876.3083,92.1877
2877.2727,92.0381
2878.2368,91.868
2879.2012,91.6822
2880.1653,91.4899
2881.1296,91.3037
2882.0938,91.1371
2883.0581,91.0017
2884.0222,90.9036
2884.9866,90.8411
2885.9507,90.8048
2886.9150,90.7788
2887.8792,90.7456
2888.8435,90.6923
2889.8076,90.616
2890.7720,90.5262
2891.7361,90.4399
2892.7004,90.3701
2893.6646,90.3128
2894.6289,90.2424
2895.5930,90.1216
2896.5574,89.9234
2897.5215,89.6536
2898.4858,89.3573
2899.4500,89.1037
2900.4143,88.9553
2901.3784,88.9386
2902.3428,89.0343
2903.3069,89.1904
2904.2712,89.3492
2905.2354,89.4717
2906.1997,89.5459
2907.1638,89.581
2908.1282,89.5955
2909.0923,89.6072
2910.0566,89.6304
2911.0208,89.6752
2911.9851,89.7458
2912.9492,89.838
2913.9136,89.9376
2914.8777,90.0244
2915.8420,90.08
2916.8062,90.0956
2917.7705,90.0742
2918.7346,90.0281
2919.6990,89.9724
2920.6631,89.9195
2921.6274,89.8768
2922.5916,89.8467
2923.5559,89.8278
2924.5200,89.8166
2925.4844,89.8088
2926.4485,89.8006
2927.4128,89.7905
2928.3770,89.7783
2929.3413,89.765
2930.3054,89.7511
2931.2698,89.7364
2932.2339,89.721
2933.1982,89.7061
2934.1624,89.6951
2935.1267,89.6916
2936.0908,89.6976
2937.0552,89.7118
2938.0193,89.7295
2938.9836,89.7449
2939.9478,89.7545
2940.9121,89.7601
2941.8762,89.7689
2942.8406,89.7897
2943.8047,89.8277
2944.7690,89.8792
2945.7332,89.9314
2946.6975,89.9667
2947.6616,89.9704
2948.6260,89.9364
2949.5901,89.8694
2950.5544,89.7811
2951.5186,89.6833
2952.4829,89.5836
2953.4470,89.4838
2954.4114,89.3828
2955.3755,89.2797
2956.3398,89.176
2957.3040,89.0743
2958.2683,88.976
2959.2324,88.8787
2960.1968,88.7763
2961.1609,88.661
2962.1252,88.5272
2963.0894,88.3731
2964.0537,88.202
2965.0178,88.0204
2965.9822,87.8363
2966.9463,87.6582
2967.9106,87.4951
2968.8748,87.3566
2969.8391,87.2532
2970.8032,87.1937
2971.7676,87.1824
2972.7317,87.2167
2973.6960,87.2873
2974.6602,87.3806
2975.6245,87.4831
2976.5886,87.5848
2977.5530,87.6809
2978.5171,87.7711
2979.4814,87.8571
2980.4456,87.9371
2981.4099,88.0021
2982.3740,88.0349
2983.3384,88.0177
2984.3025,87.9457
2985.2668,87.8406
2986.2310,87.7544
2987.1953,87.7557
2988.1594,87.901
2989.1238,88.206
2990.0879,88.633
2991.0522,89.1055
2992.0164,89.5407
2992.9807,89.8842
2993.9448,90.1281
2994.9092,90.3035
2995.8733,90.4573
2996.8376,90.6266
2997.8018,90.8264
2998.7661,91.0527
2999.7302,91.2936
3000.6946,91.5404
3001.6587,91.7914
3002.6230,92.0493
3003.5872,92.3173
3004.5515,92.5955
3005.5156,92.8804
3006.4800,93.1662
3007.4441,93.4465
3008.4084,93.7166
3009.3726,93.9754
3010.3369,94.2265
3011.3010,94.4764
3012.2654,94.7314
3013.2295,94.9938
3014.1938,95.2605
3015.1580,95.525
3016.1223,95.7799
3017.0864,96.0208
3018.0508,96.2463
3019.0149,96.4575
3019.9792,96.6559
3020.9434,96.8435
3021.9077,97.0232
3022.8718,97.1982
3023.8362,97.3713
3024.8003,97.5426
3025.7646,97.7086
3026.7288,97.8637
3027.6931,98.004
3028.6572,98.1302
3029.6216,98.2483
3030.5857,98.3659
3031.5500,98.4884
3032.5142,98.6158
3033.4785,98.7436
3034.4426,98.8667
3035.4070,98.9823
3036.3711,99.0906
3037.3354,99.1927
3038.2996,99.2883
3039.2639,99.3746
3040.2280,99.4479
3041.1924,99.5056
3042.1565,99.5487
3043.1208,99.5814
3044.0850,99.6097
3045.0493,99.6398
3046.0134,99.6753
3046.9778,99.7168
3047.9419,99.7605
3048.9063,99.7998
3049.8704,99.8274
3050.8347,99.8393
3051.7988,99.8362
3052.7632,99.8241
3053.7273,99.8115
3054.6917,99.8061
3055.6558,99.8121
3056.6201,99.8291
3057.5842,99.8524
3058.5486,99.8721
3059.5127,99.8828
3060.4771,99.8796
3061.4412,99.8612
3062.4055,99.8322
3063.3696,99.8018
3064.3340,99.7812
3065.2981,99.7779
3066.2625,99.7925
3067.2266,99.8185
3068.1909,99.8464
3069.1550,99.8689
3070.1194,99.8834
3071.0835,99.8915
3072.0479,99.896
3073.0120,99.8976
3073.9763,99.8946
3074.9404,99.8842
3075.9048,99.8656
3076.8689,99.8415
3077.8333,99.818
3078.7974,99.8017
3079.7617,99.7973
3080.7258,99.8056
3081.6902,99.8237
3082.6543,99.846
3083.6187,99.8669
3084.5828,99.8822
3085.5471,99.8903
3086.5112,99.8917
3087.4756,99.8879
3088.4397,99.8797
3089.4041,99.8667
3090.3682,99.8483
3091.3325,99.8243
3092.2966,99.7966
3093.2610,99.7689
3094.2251,99.7445
3095.1895,99.7245
3096.1536,99.707
3097.1179,99.6888
3098.0820,99.668
3099.0464,99.6465
3100.0105,99.6289
3100.9749,99.6208
3101.9390,99.6244
3102.9033,99.6373
3103.8674,99.6535
3104.8318,99.6663
3105.7959,99.6711
3106.7603,99.6671
3107.7244,99.656
3108.6887,99.6407
3109.6528,99.6231
3110.6172,99.6035
3111.5813,99.5811
3112.5457,99.5556
3113.5098,99.5279
3114.4741,99.5003
3115.4382,99.4755
3116.4026,99.4553
3117.3667,99.44
3118.3311,99.4281
3119.2952,99.4175
3120.2595,99.4067
3121.2236,99.3953
3122.1880,99.3849
3123.1521,99.3782
3124.1165,99.3775
3125.0806,99.3835
3126.0449,99.3934
3127.0090,99.4015
3127.9734,99.4007
3128.9375,99.3861
3129.9019,99.3585
3130.8660,99.3248
3131.8303,99.2961
3132.7944,99.2824
3133.7588,99.2877
3134.7229,99.3077
3135.6873,99.3319
3136.6514,99.3494
3137.6157,99.3535
3138.5798,99.3445
3139.5442,99.3278
3140.5083,99.3107
3141.4727,99.2977
3142.4368,99.2892
3143.4011,99.2821
3144.3652,99.2727
3145.3296,99.2592
3146.2937,99.2434
3147.2581,99.2295
3148.2222,99.2216
3149.1865,99.2209
3150.1506,99.2244
3151.1150,99.2264
3152.0791,99.2212
3153.0435,99.2063
3154.0076,99.1834
3154.9719,99.1572
3155.9360,99.1325
3156.9004,99.1121
3157.8645,99.096
3158.8289,99.0828
3159.7930,99.0704
3160.7573,99.0579
3161.7214,99.0451
3162.6858,99.0317
3163.6499,99.0173
3164.6143,99.0019
3165.5784,98.9865
3166.5427,98.9732
3167.5068,98.9642
3168.4712,98.9605
3169.4353,99.0648
3170.3997,99.0632
3171.3638,99.0541
3172.3281,99.0339
3173.2922,99.0024
3174.2566,98.9634
3175.2207,98.9232
3176.1851,98.8889
3177.1492,98.8656
3178.1135,98.8547
3179.0776,98.8533
3180.0420,98.8559
3181.0061,98.8571
3181.9705,98.8537
3182.9346,98.8455
3183.8989,98.8344
3184.8630,98.8221
3185.8274,98.8093
3186.7915,98.7951
3187.7559,98.7788
3188.7200,98.761
3189.6843,98.7439
3190.6484,98.729
3191.6128,98.7162
3192.5769,98.7026
3193.5413,98.6847
3194.5054,98.6609
3195.4697,98.6332
3196.4338,98.6069
3197.3982,98.5875
3198.3623,98.5781
3199.3267,98.5775
3200.2908,98.5817
3201.2551,98.5862
3202.2192,98.5867
3203.1836,98.5806
3204.1477,98.5669
3205.1121,98.5464
3206.0762,98.5224
3207.0405,98.4992
3208.0046,98.4808
3208.9690,98.4677
3209.9331,98.4569
3210.8975,98.4432
3211.8616,98.4236
3212.8259,98.3996
3213.7900,98.377
3214.7544,98.3623
3215.7185,98.3582
3216.6829,98.3618
3217.6470,98.367
3218.6113,98.3679
3219.5754,98.3622
3220.5398,98.3509
3221.5039,98.3369
3222.4683,98.3213
3223.4324,98.3037
3224.3967,98.2832
3225.3608,98.261
3226.3252,98.2413
3227.2893,98.2294
3228.2537,98.2293
3229.2178,98.2404
3230.1821,98.2571
3231.1462,98.2714
3232.1106,98.2758
3233.0747,98.2675
3234.0391,98.2489
3235.0032,98.2256
3235.9675,98.2039
3236.9316,98.1868
3237.8960,98.1741
3238.8601,98.1632
3239.8245,98.1519
3240.7886,98.1401
3241.7529,98.13
3242.7170,98.1242
3243.6814,98.1239
3244.6455,98.1277
3245.6099,98.1326
3246.5740,98.1347
3247.5383,98.1321
3248.5024,98.1248
3249.4668,98.1142
3250.4309,98.1016
3251.3953,98.0872
3252.3594,98.0707
3253.3237,98.0522
3254.2878,98.0333
3255.2522,98.0175
3256.2163,98.0084
3257.1807,98.0084
3258.1448,98.016
3259.1091,98.0265
3260.0732,98.0334
3261.0376,98.0316
3262.0017,98.0201
3262.9661,98.0022
3263.9302,97.9832
3264.8945,97.9681
3265.8586,97.9586
3266.8230,97.9535
3267.7871,97.9488
3268.7515,97.9397
3269.7156,97.9229
3270.6799,97.8976
3271.6440,97.8661
3272.6084,97.8338
3273.5725,97.8076
3274.5369,97.7927
3275.5010,97.7908
3276.4653,97.7989
3277.4294,97.8105
3278.3938,97.8191
3279.3579,97.8206
3280.3223,97.8149
3281.2864,97.8048
3282.2507,97.7943
3283.2148,97.7862
3284.1792,97.7812
3285.1433,97.7779
3286.1077,97.7741
3287.0718,97.7686
3288.0361,97.7611
3289.0002,97.7529
3289.9646,97.7457
3290.9287,97.7399
3291.8931,97.7348
3292.8572,97.7281
3293.8215,97.7176
3294.7856,97.702
3295.7500,97.6822
3296.7141,97.6601
3297.6785,97.6386
3298.6426,97.6201
3299.6069,97.6065
3300.5710,97.5987
3301.5354,97.5962
3302.4995,97.5966
3303.4639,97.5963
3304.4280,97.5921
3305.3923,97.5823
3306.3564,97.5678
3307.3208,97.5514
3308.2849,97.5364
3309.2493,97.5249
3310.2134,97.5174
3311.1777,97.5127
3312.1418,97.5092
3313.1062,97.5049
3314.0703,97.4977
3315.0347,97.4859
3315.9988,97.4693
3316.9631,97.4502
3317.9272,97.4332
3318.8916,97.4233
3319.8557,97.4225
3320.8201,97.4283
3321.7842,97.434
3322.7485,97.4323
3323.7126,97.4194
3324.6770,97.3969
3325.6411,97.3709
3326.6055,97.3477
3327.5696,97.331
3328.5339,97.32
3329.4980,97.3115
3330.4624,97.3029
3331.4265,97.294
3332.3909,97.2864
3333.3550,97.2821
3334.3193,97.2811
3335.2834,97.2817
3336.2478,97.2813
3337.2119,97.278
3338.1763,97.272
3339.1404,97.2649
3340.1047,97.2577
3341.0688,97.2502
3342.0332,97.2413
3342.9973,97.2299
3343.9617,97.2167
3344.9258,97.2043
3345.8901,97.1956
3346.8542,97.1923
3347.8186,97.193
3348.7827,97.1939
3349.7471,97.1905
3350.7112,97.1796
3351.6755,97.161
3352.6396,97.1371
3353.6040,97.112
3354.5681,97.0897
3355.5325,97.0728
3356.4966,97.0624
3357.4609,97.0573
3358.4250,97.0552
3359.3894,97.0531
3360.3535,97.0488
3361.3179,97.0415
3362.2820,97.0331
3363.2463,97.0264
3364.2104,97.0244
3365.1748,97.0277
3366.1389,97.0344
3367.1033,97.0405
3368.0674,97.0422
3369.0317,97.0383
3369.9958,97.0305
3370.9602,97.0221
3371.9243,97.0159
3372.8887,97.012
3373.8528,97.0083
3374.8171,97.0023
3375.7813,96.9932
3376.7456,96.983
3377.7097,96.975
3378.6741,96.9718
3379.6382,96.9735
3380.6025,96.977
3381.5667,96.9787
3382.5310,96.9767
3383.4951,96.9721
3384.4595,96.968
3385.4236,96.9672
3386.3879,96.9695
3387.3521,96.9718
3388.3164,96.9702
3389.2805,96.9624
3390.2449,96.9491
3391.2090,96.934
3392.1733,96.9219
3393.1375,96.9164
3394.1018,96.9193
3395.0659,96.9301
3396.0303,96.9465
3396.9944,96.9641
3397.9587,96.9768
3398.9229,96.979
3399.8872,96.9685
3400.8513,96.9483
3401.8157,96.926
3402.7798,96.91
3403.7441,96.9058
3404.7083,96.9143
3405.6726,96.9317
3406.6367,96.9529
3407.6011,96.9734
3408.5652,96.9901
3409.5295,97.0008
3410.4937,97.0044
3411.4580,97.0002
3412.4221,96.9891
3413.3865,96.973
3414.3506,96.9542
3415.3149,96.934
3416.2791,96.9128
3417.2434,96.8917
3418.2075,96.8752
3419.1719,96.8706
3420.1360,96.885
3421.1003,96.9201
3422.0645,96.9695
3423.0288,97.0218
3423.9929,97.0663
3424.9573,97.0979
3425.9214,97.1177
3426.8857,97.1307
3427.8499,97.1424
3428.8142,97.1561
3429.7783,97.1725
3430.7427,97.1909
3431.7068,97.2116
3432.6711,97.2356
3433.6353,97.2641
3434.5996,97.2957
3435.5637,97.3255
3436.5281,97.3466
3437.4922,97.3528
3438.4565,97.3406
3439.4207,97.3112
3440.3850,97.2689
3441.3491,97.2199
3442.3135,97.1712
3443.2776,97.1297
3444.2419,97.1034
3445.2061,97.1005
3446.1704,97.1267
3447.1345,97.1807
3448.0989,97.2525
3449.0630,97.3271
3450.0273,97.3925
3450.9915,97.4425
3451.9558,97.4765
3452.9199,97.4965
3453.8843,97.505
3454.8484,97.5049
3455.8127,97.4987
3456.7769,97.4891
3457.7412,97.4786
3458.7053,97.469
3459.6697,97.462
3460.6338,97.4594
3461.5981,97.463
3462.5623,97.4744
3463.5266,97.4944
3464.4907,97.5222
3465.4551,97.5553
3466.4192,97.589
3467.3835,97.6176
3468.3477,97.6354
3469.3120,97.6387
3470.2761,97.6281
3471.2405,97.6096
3472.2046,97.5938
3473.1689,97.5911
3474.1331,97.6067
3475.0974,97.6352
3476.0615,97.6628
3477.0259,97.6739
3477.9900,97.6607
3478.9543,97.6283
3479.9185,97.5937
3480.8828,97.5772
3481.8469,97.5898
3482.8113,97.6267
3483.7754,97.6713
3484.7397,97.707
3485.7039,97.7264
3486.6682,97.7336
3487.6323,97.7392
3488.5967,97.7526
3489.5608,97.7751
3490.5251,97.8008
3491.4893,97.8216
3492.4536,97.8333
3493.4177,97.8379
3494.3821,97.8419
3495.3462,97.8493
3496.3105,97.8562
3497.2747,97.8513
3498.2390,97.8228
3499.2031,97.768
3500.1675,97.6982
3501.1316,97.6394
3502.0959,97.6217
3503.0601,97.659
3504.0244,97.7362
3504.9885,97.8201
3505.9529,97.8834
3506.9170,97.9171
3507.8813,97.9298
3508.8455,97.9401
3509.8098,97.9649
3510.7739,98.0092
3511.7383,98.0644
3512.7024,98.1176
3513.6667,98.1603
3514.6309,98.1909
3515.5952,98.2114
3516.5593,98.2236
3517.5237,98.2266
3518.4878,98.2176
3519.4521,98.1934
3520.4163,98.1544
3521.3806,98.1059
3522.3447,98.0575
3523.3091,98.0193
3524.2732,97.9976
3525.2375,97.9956
3526.2017,98.0167
3527.1660,98.0665
3528.1301,98.1479
3529.0945,98.2539
3530.0586,98.3661
3531.0229,98.4636
3531.9871,98.5338
3532.9514,98.577
3533.9155,98.6055
3534.8799,98.637
3535.8440,98.6856
3536.8083,98.7502
3537.7725,98.8129
3538.7368,98.8503
3539.7009,98.8479
3540.6653,98.806
3541.6294,98.7378
3542.5938,98.6665
3543.5579,98.6243
3544.5222,98.6415
3545.4863,98.7242
3546.4507,98.8425
3547.4148,98.951
3548.3792,99.0231
3549.3433,99.0635
3550.3076,99.096
3551.2717,99.1467
3552.2361,99.2296
3553.2002,99.3365
3554.1646,99.4426
3555.1287,99.5241
3556.0930,99.5712
3557.0571,99.586
3558.0215,99.5744
3558.9856,99.5417
3559.9500,99.4927
3560.9141,99.4327
3561.8784,99.3671
3562.8425,99.2988
3563.8069,99.2298
3564.7710,99.1803
3565.7354,99.2115
3566.6995,99.38
3567.6638,99.638
3568.6279,99.8562
3569.5923,99.9626
3570.5564,99.9847
3571.5208,99.9817
3572.4849,99.9889
3573.4492,100.009
3574.4133,100.031
3575.3777,100.046
3576.3418,100.056
3577.3062,100.066
3578.2703,100.075
3579.2346,100.076
3580.1987,100.061
3581.1631,100.035
3582.1272,100.011
3583.0916,99.9994
3584.0557,99.9989
3585.0200,99.9974
3585.9841,100.001
3586.9485,100.034
3587.9126,100.081
3588.8770,100.085
3589.8411,100.014
3590.8054,99.8975
3591.7695,99.7772
3592.7339,99.6763
3593.6980,99.5976
3594.6624,99.537
3595.6265,99.4877
3596.5908,99.4449
3597.5549,99.415
3598.5193,99.4153
3599.4834,99.4604
3600.4478,99.5473
3601.4119,99.6531
3602.3762,99.7534
3603.3403,99.8398
3604.3047,99.9169
3605.2688,99.9822
3606.2332,100.044
3607.1973,100.107
3608.1616,100.166
3609.1257,100.199
3610.0901,100.174
3611.0542,100.084
3612.0186,99.9462
3612.9829,99.802
3613.9470,99.6891
3614.9114,99.6286
3615.8755,99.621
3616.8398,99.6536
3617.8040,99.7124
3618.7683,99.7794
3619.7324,99.8134
3620.6968,99.7607
3621.6609,99.6167
3622.6252,99.4513
3623.5894,99.3602
3624.5537,99.3979
3625.5178,99.5431
3626.4822,99.7165
3627.4463,99.8504
3628.4106,99.9366
3629.3748,99.9549
3630.3391,99.8532
3631.3032,99.6568
3632.2676,99.4652
3633.2317,99.3571
3634.1960,99.3438
3635.1602,99.3848
3636.1245,99.4275
3637.0886,99.4386
3638.0530,99.4123
3639.0171,99.3567
3639.9814,99.2796
3640.9456,99.1874
3641.9099,99.0941
3642.8740,99.024
3643.8384,98.9973
3644.8025,98.9995
3645.7668,98.9626
3646.7310,98.8117
3647.6953,98.6189
3648.6594,98.6384
3649.6238,98.9031
3650.5879,99.1073
3651.5522,99.0945
3652.5164,98.9612
3653.4807,98.8332
3654.4448,98.7535
3655.4092,98.6963
3656.3733,98.6208
3657.3376,98.5092
3658.3018,98.3784
3659.2661,98.2666
3660.2302,98.2028
3661.1946,98.1836
3662.1587,98.1806
3663.1230,98.1721
3664.0872,98.167
3665.0515,98.193
3666.0156,98.2598
3666.9800,98.3341
3667.9441,98.3636
3668.9084,98.3344
3669.8726,98.2814
3670.8369,98.235
3671.8010,98.2001
3672.7654,98.1688
3673.7295,98.1304
3674.6938,98.1052
3675.6580,98.141
3676.6223,98.2207
3677.5864,98.2631
3678.5508,98.2411
3679.5149,98.1908
3680.4792,98.1431
3681.4434,98.1015
3682.4077,98.0658
3683.3718,98.0539
3684.3362,98.0909
3685.3003,98.1727
3686.2646,98.2421
3687.2288,98.2211
3688.1931,98.1049
3689.1572,98.0009
3690.1216,97.9909
3691.0857,98.0379
3692.0500,98.0844
3693.0142,98.123
3693.9785,98.1688
3694.9426,98.2319
3695.9070,98.3163
3696.8711,98.4255
3697.8354,98.5611
3698.7996,98.7165
3699.7639,98.8744
3700.7280,99.0118
3701.6924,99.1062
3702.6565,99.1416
3703.6208,99.1216
3704.5850,99.0768
3705.5493,99.048
3706.5134,99.0573
3707.4778,99.0953
3708.4419,99.146
3709.4063,99.2407
3710.3704,99.462
3711.3347,99.8116
3712.2988,100.13
3713.2632,100.266
3714.2273,100.221
3715.1917,100.088
3716.1558,99.9477
3717.1201,99.83
3718.0842,99.722
3719.0486,99.5989
3720.0127,99.4511
3720.9771,99.2931
3721.9412,99.1548
3722.9055,99.0661
3723.8696,99.0432
3724.8340,99.0787
3725.7981,99.1432
3726.7625,99.2066
3727.7266,99.2609
3728.6909,99.3165
3729.6550,99.3772
3730.6194,99.4203
3731.5835,99.4041
3732.5479,99.3125
3733.5120,99.2139
3734.4763,99.2348
3735.4404,99.3915
3736.4048,99.5326
3737.3689,99.547
3738.3333,99.4983
3739.2974,99.5377
3740.2617,99.7732
3741.2258,100.2
3742.1902,100.686
3743.1543,101.024
3744.1187,101.057
3745.0828,100.792
3746.0471,100.379
3747.0112,99.9938
3747.9756,99.748
3748.9397,99.6796
3749.9041,99.7939
3750.8682,100.03
3751.8325,100.202
3752.7966,100.16
3753.7610,99.949
3754.7251,99.7141
3755.6895,99.5595
3756.6536,99.5159
3757.6179,99.5678
3758.5820,99.6757
3759.5464,99.7825
3760.5105,99.849
3761.4749,99.8541
3762.4390,99.8198
3763.4033,99.7756
3764.3674,99.7411
3765.3318,99.7254
3766.2959,99.7327
3767.2603,99.7648
3768.2244,99.8213
3769.1887,99.8961
3770.1528,99.9707
3771.1172,100.017
3772.0813,100.019
3773.0457,99.9842
3774.0098,99.9409
3774.9741,99.9097
3775.9382,99.8915
3776.9026,99.8753
3777.8667,99.8563
3778.8311,99.8362
3779.7952,99.808
3780.7595,99.7588
3781.7236,99.6884
3782.6880,99.6158
3783.6521,99.5679
3784.6165,99.5647
3785.5806,99.6082
3786.5449,99.6802
3787.5090,99.7539
3788.4734,99.8109
3789.4375,99.8482
3790.4019,99.8727
3791.3660,99.8858
3792.3303,99.8747
3793.2944,99.8176
3794.2588,99.7053
3795.2229,99.5605
3796.1873,99.4333
3797.1514,99.3695
3798.1157,99.3797
3799.0798,99.4355
3800.0442,99.4969
3801.0083,99.5406
3801.9727,99.5631
3802.9368,99.5775
3803.9011,99.6168
3804.8652,99.7117
3805.8296,99.8557
3806.7937,99.9925
3807.7581,100.046
3808.7222,99.9823
3809.6865,99.8541
3810.6506,99.7586
3811.6150,99.7609
3812.5791,99.8452
3813.5435,99.9267
3814.5076,99.9164
3815.4719,99.7911
3816.4360,99.603
3817.4004,99.4306
3818.3645,99.3327
3819.3289,99.3338
3820.2930,99.4166
3821.2573,99.5117
3822.2214,99.5323
3823.1858,99.4527
3824.1499,99.3282
3825.1143,99.2385
3826.0784,99.2305
3827.0427,99.3029
3828.0068,99.419
3828.9712,99.532
3829.9353,99.6074
3830.8997,99.635
3831.8638,99.6254
3832.8281,99.5976
3833.7922,99.5626
3834.7566,99.5142
3835.7207,99.4356
3836.6851,99.3238
3837.6492,99.209
3838.6135,99.136
3839.5776,99.1265
3840.5420,99.1752
3841.5061,99.2697
3842.4705,99.3906
3843.4346,99.4995
3844.3989,99.5482
3845.3630,99.5124
3846.3274,99.4196
3847.2915,99.3438
3848.2559,99.3665
3849.2200,99.5304
3850.1843,99.8064
3851.1484,100.107
3852.1128,100.369
3853.0769,100.587
3854.0413,100.659
3855.0054,100.453
3855.9697,100.059
3856.9338,99.6791
3857.8982,99.4476
3858.8623,99.3788
3859.8267,99.4032
3860.7908,99.4247
3861.7551,99.3867
3862.7192,99.3137
3863.6836,99.2776
3864.6477,99.32
3865.6121,99.4232
3866.5762,99.5381
3867.5405,99.6139
3868.5046,99.6192
3869.4690,99.5616
3870.4331,99.4868
3871.3975,99.4423
3872.3616,99.4414
3873.3259,99.4688
3874.2900,99.5093
3875.2544,99.5585
3876.2185,99.6117
3877.1829,99.6514
3878.1470,99.6499
3879.1113,99.5923
3880.0754,99.4999
3881.0398,99.4256
3882.0039,99.4205
3882.9683,99.5027
3883.9324,99.6467
3884.8967,99.7942
3885.8608,99.8832
3886.8252,99.8857
3887.7893,99.8194
3888.7537,99.7247
3889.7178,99.6358
3890.6821,99.574
3891.6462,99.5461
3892.6106,99.5376
3893.5747,99.5274
3894.5391,99.5178
3895.5032,99.526
3896.4675,99.553
3897.4316,99.5738
3898.3960,99.5613
3899.3601,99.5127
3900.3245,99.4506
3901.2886,99.4034
3902.2529,99.3945
3903.2170,99.4362
3904.1814,99.5169
3905.1455,99.604
3906.1099,99.6711
3907.0740,99.7154
3908.0383,99.747
3909.0024,99.7711
3909.9668,99.7835
3910.9309,99.7785
3911.8953,99.7564
3912.8594,99.7244
3913.8237,99.6915
3914.7878,99.6651
3915.7522,99.6518
3916.7163,99.6553
3917.6807,99.6671
3918.6448,99.6647
3919.6091,99.6283
3920.5732,99.5591
3921.5376,99.4776
3922.5017,99.4111
3923.4661,99.3798
3924.4302,99.3857
3925.3945,99.4091
3926.3586,99.4239
3927.3230,99.4165
3928.2871,99.391
3929.2515,99.3639
3930.2156,99.3587
3931.1799,99.3962
3932.1440,99.4777
3933.1084,99.5795
3934.0725,99.6704
3935.0369,99.7327
3936.0010,99.7639
3936.9653,99.767
3937.9294,99.7441
3938.8938,99.6969
3939.8579,99.6332
3940.8223,99.5702
3941.7864,99.5283
3942.7507,99.5176
3943.7148,99.5285
3944.6792,99.5391
3945.6433,99.5313
3946.6077,99.5003
3947.5718,99.4577
3948.5361,99.4265
3949.5002,99.4264
3950.4646,99.4612
3951.4287,99.518
3952.3931,99.5784
3953.3572,99.6286
3954.3215,99.662
3955.2856,99.6778
3956.2500,99.6793
3957.2141,99.6711
3958.1785,99.6592
3959.1426,99.6504
3960.1069,99.6523
3961.0710,99.6709
3962.0354,99.7063
3962.9995,99.7506
3963.9639,99.7913
3964.9280,99.8164
3965.8923,99.8199
3966.8564,99.8027
3967.8208,99.7703
3968.7849,99.7302
3969.7493,99.6884
3970.7134,99.6492
3971.6777,99.617
3972.6418,99.5969
3973.6062,99.5938
3974.5703,99.6087
3975.5347,99.6368
3976.4988,99.6684
3977.4631,99.6935
3978.4272,99.7071
3979.3916,99.7103
3980.3557,99.7095
3981.3201,99.7116
3982.2842,99.7197
3983.2485,99.7314
3984.2126,99.7412
3985.1770,99.7443
3986.1411,99.739
3987.1055,99.727
3988.0696,99.7107
3989.0339,99.6921
3989.9980,99.6725
3990.9624,99.6546
3991.9265,99.6436
3992.8909,99.6454
3993.8550,99.6629
3994.8193,99.692
3995.7834,99.7222
3996.7478,99.7418
3997.7119,99.7446
3998.6763,99.7332
3999.6404,99.717
4000.6047,99.5046

##### Extended Information
[Comments]
Sample name
Comment
User
Division
Company,HANKYONG

[Detailed Information]
Creation date,4/24/2024 2:27 PM

Data array type,Linear data array
Horizontal axis,Wavenumber [cm-1]
Vertical axis,%T
Start,649.893 cm-1
End,4000.6 cm-1
Data interval,0.964233 cm-1
Data points,3476    

[Measurement Information]
Model Name,FT/IR-4700typeA
Serial Number,D056761788

Accessory,ATR PRO ONE
Accessory S/N,C174761809
Incident angle,45 deg

Measurement Date,4/24/2024 2:26 PM

Light Source,Standard
Detector,TGS
Accumulation,32
Resolution,4 cm-1
Zero Filling,On
Apodization,Cosine
Gain,Auto (4)
Aperture,Auto (7.1 mm)
Scanning Speed,Auto (2 mm/sec)
Filter,Auto (30000 Hz)

