TITLE,
DATA TYPE,INFRARED SPECTRUM
ORIGIN,JASCO
OWNER,
DATE,24/04/24
TIME,12:19:47
SPECTROMETER/DATA SYSTEM,
LOCALE,1033
RESOLUTION,
DELTAX,0.964233
XUNITS,1/CM
YUNITS,TRANSMITTANCE
FIRSTX,  649.8934
LASTX, 4000.6047
NPOINTS,    3476
FIRSTY,    97.94719
MAXY,   101.14326
MINY,    60.72506
XYDATA
649.8934,97.9472
650.8576,98.0473
651.8218,98.1717
652.7861,98.3074
653.7503,98.4341
654.7145,98.5391
655.6788,98.6123
656.6430,98.647
657.6072,98.6488
658.5715,98.6462
659.5357,98.6876
660.4999,98.8136
661.4642,99.0202
662.4284,99.2476
663.3926,99.4065
664.3569,99.4096
665.3211,99.1848
666.2853,98.6957
667.2496,98.0266
668.2138,97.4875
669.1780,97.4157
670.1423,97.7599
671.1065,98.2117
672.0707,98.5664
673.0350,98.7689
673.9992,98.8365
674.9634,98.8141
675.9277,98.7582
676.8919,98.7199
677.8561,98.7282
678.8204,98.7849
679.7846,98.8736
680.7488,98.9701
681.7131,99.0505
682.6773,99.0998
683.6415,99.118
684.6058,99.1218
685.5700,99.1356
686.5342,99.1758
687.4985,99.2383
688.4627,99.2969
689.4269,99.3148
690.3912,99.2655
691.3554,99.156
692.3196,99.0445
693.2839,99.0223
694.2481,99.1436
695.2123,99.3746
696.1766,99.6374
697.1408,99.8722
698.1050,100.053
699.0693,100.178
700.0335,100.26
700.9977,100.314
701.9620,100.356
702.9262,100.399
703.8904,100.454
704.8547,100.527
705.8189,100.618
706.7831,100.712
707.7474,100.791
708.7116,100.838
709.6758,100.848
710.6401,100.831
711.6043,100.804
712.5685,100.778
713.5328,100.748
714.4970,100.696
715.4612,100.765
716.4255,100.599
717.3897,100.396
718.3539,100.193
719.3182,100.042
720.2824,99.9778
721.2466,100.004
722.2109,100.087
723.1751,100.176
724.1393,100.226
725.1036,100.217
726.0678,100.148
727.0320,100.044
727.9963,99.9338
728.9605,99.8458
729.9247,99.8178
730.8890,99.8559
731.8532,99.9253
732.8174,100.012
733.7817,100.103
734.7459,100.186
735.7101,100.254
736.6744,100.3
737.6386,100.319
738.6028,100.312
739.5671,100.288
740.5313,100.263
741.4955,100.253
742.4598,100.268
743.4240,100.306
744.3882,100.353
745.3525,100.392
746.3167,100.411
747.2809,100.408
748.2452,100.387
749.2094,100.357
750.1736,100.324
751.1379,100.289
752.1021,100.25
753.0663,100.21
754.0306,100.174
754.9948,100.148
755.9590,100.135
756.9233,100.129
757.8875,100.118
758.8517,100.093
759.8160,100.049
760.7802,99.9928
761.7444,99.9345
762.7087,99.8825
763.6729,99.8391
764.6371,99.8024
765.6014,99.7718
766.5656,99.7522
767.5298,99.7522
768.4941,99.7777
769.4583,99.8249
770.4225,99.8794
771.3868,99.9219
772.3510,99.9367
773.3152,99.9181
774.2795,99.8707
775.2437,99.806
776.2079,99.7375
777.1722,99.6782
778.1364,99.6384
779.1006,99.6237
780.0649,99.6318
781.0291,99.6513
781.9933,99.6649
782.9576,99.6569
783.9218,99.6207
784.8860,99.562
785.8503,99.4943
786.8145,99.4289
787.7787,99.3675
788.7430,99.3007
789.7072,99.2144
790.6714,99.0996
791.6357,98.9575
792.5999,98.7974
793.5641,98.6294
794.5284,98.4567
795.4926,98.2735
796.4568,98.0706
797.4211,97.8442
798.3853,97.6012
799.3495,97.3578
800.3138,97.1324
801.2780,96.9377
802.2422,96.7769
803.2065,96.6461
804.1707,96.5397
805.1349,96.4555
806.0992,96.3958
807.0634,96.3643
808.0276,96.363
808.9919,96.3884
809.9561,96.4312
810.9203,96.4782
811.8846,96.5156
812.8488,96.5327
813.8130,96.5254
814.7773,96.4963
815.7415,96.4529
816.7057,96.4034
817.6700,96.354
818.6342,96.3075
819.5984,96.2655
820.5627,96.2301
821.5269,96.2039
822.4911,96.1873
823.4554,96.1759
824.4196,96.1617
825.3839,96.1373
826.3481,96.102
827.3123,96.0642
828.2766,96.0375
829.2408,96.0328
830.2050,96.051
831.1693,96.0828
832.1335,96.1153
833.0977,96.1409
834.0620,96.1637
835.0262,96.1977
835.9904,96.2593
836.9547,96.3577
837.9189,96.4893
838.8831,96.6385
839.8474,96.7843
840.8116,96.9074
841.7758,96.9974
842.7401,97.0546
843.7043,97.0875
844.6685,97.1082
845.6328,97.1261
846.5970,97.1445
847.5612,97.1602
848.5255,97.1668
849.4897,97.1589
850.4539,97.1356
851.4182,97.0997
852.3824,97.0562
853.3466,97.0089
854.3109,96.9593
855.2751,96.9072
856.2393,96.8526
857.2036,96.7959
858.1678,96.7381
859.1320,96.6792
860.0963,96.6166
861.0605,96.5452
862.0247,96.4576
862.9890,96.3446
863.9532,96.1958
864.9174,95.9995
865.8817,95.743
866.8459,95.4137
867.8101,95.0014
868.7744,94.5002
869.7386,93.9109
870.7028,93.2415
871.6671,92.5068
872.6313,91.7287
873.5955,90.9367
874.5598,90.1714
875.5240,89.4857
876.4882,88.9421
877.4525,88.6036
878.4167,88.5187
879.3809,88.7081
880.3452,89.1585
881.3094,89.8286
882.2736,90.6617
883.2379,91.6004
884.2021,92.5935
885.1663,93.5949
886.1306,94.5595
887.0948,95.4428
888.0590,96.2067
889.0233,96.8301
889.9875,97.3146
890.9517,97.6825
891.9160,97.9645
892.8802,98.1868
893.8444,98.3618
894.8087,98.4883
895.7729,98.5587
896.7371,98.5679
897.7014,98.5176
898.6656,98.4168
899.6298,98.2783
900.5941,98.1148
901.5583,97.9374
902.5225,97.7551
903.4868,97.5748
904.4510,97.4013
905.4152,97.2372
906.3795,97.0831
907.3437,96.9393
908.3079,96.808
909.2722,96.6951
910.2364,96.6105
911.2006,96.5665
912.1649,96.5743
913.1291,96.6414
914.0933,96.7692
915.0576,96.9528
916.0218,97.1833
916.9860,97.449
917.9503,97.7388
918.9145,98.0422
919.8787,98.3507
920.8430,98.6573
921.8072,98.9567
922.7714,99.2447
923.7357,99.5176
924.6999,99.7702
925.6641,99.9948
926.6284,100.182
927.5926,100.361
928.5568,100.552
929.5211,100.695
930.4853,100.797
931.4495,100.867
932.4138,100.908
933.3780,100.925
934.3422,100.918
935.3065,100.889
936.2707,100.844
937.2349,100.788
938.1992,100.728
939.1634,100.664
940.1276,100.596
941.0919,100.521
942.0561,100.439
943.0203,100.35
943.9846,100.256
944.9488,100.155
945.9130,100.047
946.8773,99.9263
947.8415,99.7903
948.8057,99.6356
949.7700,99.4612
950.7342,99.268
951.6984,99.059
952.6627,98.839
953.6269,98.6135
954.5911,98.3871
955.5554,98.1618
956.5196,97.9359
957.4838,97.7052
958.4481,97.4659
959.4123,97.2172
960.3765,96.9629
961.3408,96.7113
962.3050,96.4718
963.2692,96.2517
964.2335,96.054
965.1977,95.8769
966.1619,95.7157
967.1262,95.5651
968.0904,95.4208
969.0546,95.2801
970.0189,95.1415
970.9831,95.0035
971.9473,94.8644
972.9116,94.7224
973.8758,94.5753
974.8400,94.4213
975.8043,94.2582
976.7685,94.0839
977.7327,93.8958
978.6970,93.6923
979.6612,93.4731
980.6254,93.24
981.5897,92.9963
982.5539,92.7453
983.5181,92.4884
984.4824,92.2243
985.4466,91.9489
986.4108,91.6577
987.3751,91.3479
988.3393,91.0197
989.3035,90.6746
990.2678,90.3132
991.2320,89.9326
992.1962,89.5266
993.1605,89.0878
994.1247,88.612
995.0889,88.0996
996.0532,87.5551
997.0174,86.9836
997.9816,86.3867
998.9459,85.7621
999.9101,85.105
1000.8743,84.412
1001.8386,83.6835
1002.8028,82.9234
1003.7670,82.1366
1004.7313,81.3269
1005.6955,80.4967
1006.6597,79.65
1007.6240,78.7934
1008.5882,77.9367
1009.5524,77.0907
1010.5167,76.2646
1011.4809,75.4656
1012.4451,74.6994
1013.4094,73.9703
1014.3736,73.28
1015.3378,72.6266
1016.3021,72.0045
1017.2663,71.4085
1018.2305,70.8369
1019.1948,70.29
1020.1590,69.7632
1021.1232,69.2381
1022.0875,68.6834
1023.0517,68.0685
1024.0160,67.3851
1024.9802,66.6631
1025.9445,65.9652
1026.9087,65.3611
1027.8729,64.8927
1028.8372,64.5524
1029.8014,64.2867
1030.7656,64.024
1031.7299,63.7079
1032.6941,63.3186
1033.6583,62.8737
1034.6226,62.4134
1035.5868,61.9803
1036.5510,61.6063
1037.5153,61.3067
1038.4795,61.0812
1039.4437,60.9193
1040.4080,60.8083
1041.3722,60.7413
1042.3364,60.7251
1043.3007,60.7803
1044.2649,60.9359
1045.2291,61.2192
1046.1934,61.6476
1047.1576,62.2277
1048.1218,62.9589
1049.0861,63.8364
1050.0503,64.8484
1051.0145,65.9684
1051.9788,67.1501
1052.9430,68.3325
1053.9072,69.4582
1054.8715,70.4933
1055.8357,71.4377
1056.7999,72.314
1057.7642,73.1379
1058.7284,73.8885
1059.6926,74.4978
1060.6569,74.8738
1061.6211,74.9478
1062.5853,74.7214
1063.5496,74.2823
1064.5138,73.7771
1065.4780,73.3491
1066.4423,73.0762
1067.4065,72.9412
1068.3707,72.8513
1069.3350,72.6928
1070.2992,72.3888
1071.2634,71.93
1072.2277,71.3668
1073.1919,70.7752
1074.1561,70.2217
1075.1204,69.7443
1076.0846,69.3546
1077.0488,69.0509
1078.0131,68.8302
1078.9773,68.6919
1079.9415,68.6356
1080.9058,68.6574
1081.8700,68.7482
1082.8342,68.8957
1083.7985,69.0879
1084.7627,69.3168
1085.7269,69.5811
1086.6912,69.8872
1087.6554,70.2456
1088.6196,70.6644
1089.5839,71.1404
1090.5481,71.6557
1091.5123,72.1794
1092.4766,72.6771
1093.4408,73.12
1094.4050,73.4903
1095.3693,73.7797
1096.3335,73.9847
1097.2977,74.1023
1098.2620,74.13
1099.2262,74.0685
1100.1904,73.9238
1101.1547,73.7062
1102.1189,73.4271
1103.0831,73.096
1104.0474,72.7207
1105.0116,72.3104
1105.9758,71.8801
1106.9401,71.4519
1107.9043,71.0544
1108.8685,70.7182
1109.8328,70.4717
1110.7970,70.3373
1111.7612,70.3308
1112.7255,70.4611
1113.6897,70.7319
1114.6539,71.1433
1115.6182,71.6919
1116.5824,72.3718
1117.5466,73.1743
1118.5109,74.0888
1119.4751,75.1032
1120.4393,76.206
1121.4036,77.3871
1122.3678,78.6384
1123.3320,79.953
1124.2963,81.3244
1125.2605,82.7462
1126.2247,84.2112
1127.1890,85.7105
1128.1532,87.2321
1129.1174,88.7587
1130.0817,90.267
1131.0459,91.7286
1132.0101,93.114
1132.9744,94.3954
1133.9386,95.5502
1134.9028,96.561
1135.8671,97.4151
1136.8313,98.1044
1137.7955,98.6267
1138.7598,98.9878
1139.7240,99.2021
1140.6882,99.2919
1141.6525,99.2823
1142.6167,99.1973
1143.5809,99.0562
1144.5452,98.8554
1145.5094,98.5484
1146.4736,98.2309
1147.4379,97.9194
1148.4021,97.6293
1149.3663,97.3724
1150.3306,97.1563
1151.2948,96.9849
1152.2590,96.8613
1153.2233,96.7883
1154.1875,96.7688
1155.1517,96.8037
1156.1160,96.8909
1157.0802,97.0252
1158.0444,97.1984
1159.0087,97.3999
1159.9729,97.6161
1160.9371,97.8298
1161.9014,98.0213
1162.8656,98.1722
1163.8298,98.2688
1164.7941,98.3052
1165.7583,98.2836
1166.7225,98.2115
1167.6868,98.0986
1168.6510,97.9531
1169.6152,97.7802
1170.5795,97.5805
1171.5437,97.3503
1172.5079,97.0814
1173.4722,96.7637
1174.4364,96.3879
1175.4006,95.949
1176.3649,95.4484
1177.3291,94.8937
1178.2933,94.2971
1179.2576,93.6725
1180.2218,93.0337
1181.1860,92.3925
1182.1503,91.7583
1183.1145,91.1371
1184.0787,90.5326
1185.0430,89.9467
1186.0072,89.3808
1186.9714,88.8362
1187.9357,88.3139
1188.8999,87.8131
1189.8641,87.3304
1190.8284,86.8601
1191.7926,86.3947
1192.7568,85.9271
1193.7211,85.4512
1194.6853,84.9633
1195.6495,84.4616
1196.6138,83.9455
1197.5780,83.4157
1198.5422,82.8733
1199.5065,82.3866
1200.4707,81.8197
1201.4349,81.2514
1202.3992,80.6883
1203.3634,80.138
1204.3276,79.6084
1205.2919,79.1078
1206.2561,78.644
1207.2203,78.2236
1208.1846,77.8515
1209.1488,77.5313
1210.1130,77.2655
1211.0773,77.0566
1212.0415,76.9076
1213.0057,76.8215
1213.9700,76.8011
1214.9342,76.8486
1215.8984,76.9638
1216.8627,77.1445
1217.8269,77.3852
1218.7911,77.6765
1219.7554,78.0076
1220.7196,78.3682
1221.6838,78.7511
1222.6481,79.1514
1223.6123,79.5649
1224.5765,79.9857
1225.5408,80.4053
1226.5050,80.814
1227.4692,81.204
1228.4335,81.5711
1229.3977,81.9151
1230.3619,82.2395
1231.3262,82.5501
1232.2904,82.8535
1233.2546,83.1533
1234.2189,83.4448
1235.1831,83.712
1236.1473,83.9302
1237.1116,84.0773
1238.0758,84.1501
1239.0400,84.1737
1240.0043,84.1971
1240.9685,84.2726
1241.9327,84.4301
1242.8970,84.6604
1243.8612,84.9199
1244.8254,85.1542
1245.7897,85.3253
1246.7539,85.4282
1247.7181,85.4865
1248.6824,85.5335
1249.6466,85.5922
1250.6108,85.6659
1251.5751,85.7409
1252.5393,85.7978
1253.5035,85.8209
1254.4678,85.8038
1255.4320,85.7484
1256.3962,85.6621
1257.3605,85.555
1258.3247,85.4383
1259.2889,85.3223
1260.2532,85.2147
1261.2174,85.1195
1262.1816,85.0381
1263.1459,84.9719
1264.1101,84.9239
1265.0743,84.899
1266.0386,84.903
1267.0028,84.9412
1267.9670,85.0184
1268.9313,85.1391
1269.8955,85.3071
1270.8597,85.5242
1271.8240,85.7881
1272.7882,86.0918
1273.7524,86.4248
1274.7167,86.7766
1275.6809,87.1393
1276.6451,87.5086
1277.6094,87.8834
1278.5736,88.264
1279.5378,88.6494
1280.5021,89.0358
1281.4663,89.4158
1282.4305,89.7798
1283.3948,90.1185
1284.3590,90.4263
1285.3232,90.7027
1286.2875,90.9519
1287.2517,91.1797
1288.2159,91.3903
1289.1802,91.5832
1290.1444,91.7536
1291.1086,91.896
1292.0729,92.0068
1293.0371,92.0869
1294.0013,92.141
1294.9656,92.1752
1295.9298,92.1952
1296.8940,92.2041
1297.8583,92.2024
1298.8225,92.1893
1299.7867,92.1634
1300.7510,92.1245
1301.7152,92.0723
1302.6794,92.0085
1303.6437,91.9359
1304.6079,91.8573
1305.5721,91.7748
1306.5364,91.6888
1307.5006,91.5973
1308.4648,91.4976
1309.4291,91.3884
1310.3933,91.2713
1311.3575,91.1507
1312.3218,91.0317
1313.2860,90.917
1314.2502,90.8062
1315.2145,90.6975
1316.1787,90.5914
1317.1429,90.4933
1318.1072,90.4119
1319.0714,90.3542
1320.0356,90.321
1320.9999,90.3067
1321.9641,90.3049
1322.9283,90.3148
1323.8926,90.343
1324.8568,90.4014
1325.8210,90.5025
1326.7853,90.6548
1327.7495,90.8612
1328.7137,91.1204
1329.6780,91.429
1330.6422,91.7799
1331.6064,92.1596
1332.5707,92.5476
1333.5349,92.9199
1334.4991,93.2591
1335.4634,93.5654
1336.4276,93.8631
1337.3918,94.2008
1338.3561,94.6313
1339.3203,95.1714
1340.2845,95.7754
1341.2488,96.362
1342.2130,96.8695
1343.1772,97.2815
1344.1415,97.6134
1345.1057,97.8899
1346.0699,98.1315
1347.0342,98.3513
1347.9984,98.5544
1348.9626,98.7384
1349.9269,98.8958
1350.8911,99.0187
1351.8553,99.1045
1352.8196,99.1589
1353.7838,99.1923
1354.7480,99.2128
1355.7123,99.2193
1356.6765,99.201
1357.6407,99.145
1358.6050,99.043
1359.5692,98.8954
1360.5334,98.7153
1361.4977,98.5296
1362.4619,98.3619
1363.4261,98.2072
1364.3904,98.036
1365.3546,97.8261
1366.3188,97.5797
1367.2831,97.3172
1368.2473,97.0635
1369.2115,96.8375
1370.1758,96.6485
1371.1400,96.4995
1372.1042,96.3985
1373.0685,96.3646
1374.0327,96.4177
1374.9969,96.554
1375.9612,96.7377
1376.9254,96.9303
1377.8896,97.1201
1378.8539,97.3188
1379.8181,97.5383
1380.7823,97.7727
1381.7466,98.0017
1382.7108,98.212
1383.6750,98.4148
1384.6393,98.6455
1385.6035,98.9421
1386.5677,99.3027
1387.5320,99.6473
1388.4962,99.8479
1389.4604,99.8252
1390.4247,99.5979
1391.3889,99.2504
1392.3531,98.8887
1393.3174,98.6222
1394.2816,98.5453
1395.2458,98.6099
1396.2101,98.8081
1397.1743,99.0131
1398.1385,99.0971
1399.1028,99.0068
1400.0670,98.7578
1401.0313,98.397
1401.9955,97.972
1402.9597,97.5168
1403.9240,97.0532
1404.8882,96.5946
1405.8524,96.1454
1406.8167,95.6981
1407.7809,95.2385
1408.7451,94.7547
1409.7094,94.2383
1410.6736,93.6852
1411.6378,93.0998
1412.6021,92.4963
1413.5663,91.8936
1414.5305,91.3024
1415.4948,90.7158
1416.4590,90.1137
1417.4232,89.4946
1418.3875,88.8997
1419.3517,88.3732
1420.3159,87.9128
1421.2802,87.5036
1422.2444,87.1641
1423.2086,86.9298
1424.1729,86.8176
1425.1371,86.8151
1426.1013,86.9001
1427.0656,87.0665
1428.0298,87.3307
1428.9940,87.7066
1429.9583,88.1684
1430.9225,88.648
1431.8867,89.0821
1432.8510,89.4545
1433.8152,89.7854
1434.7794,90.0874
1435.7437,90.3293
1436.7079,90.422
1437.6721,90.2587
1438.6364,89.8031
1439.6006,89.1153
1440.5648,88.2867
1441.5291,87.3838
1442.4933,86.4409
1443.4575,85.4764
1444.4218,84.5039
1445.3860,83.535
1446.3502,82.5847
1447.3145,81.6818
1448.2787,80.8678
1449.2429,80.1763
1450.2072,79.6162
1451.1714,79.1796
1452.1356,78.8576
1453.0999,78.6357
1454.0641,78.4815
1455.0283,78.3612
1455.9926,78.3231
1456.9568,78.5193
1457.9210,78.9045
1458.8853,79.17
1459.8495,79.2012
1460.8137,79.1345
1461.7780,79.1479
1462.7422,79.387
1463.7064,79.9623
1464.6707,80.8907
1465.6349,82.0119
1466.5991,83.0827
1467.5634,83.9883
1468.5276,84.7839
1469.4918,85.5884
1470.4561,86.51
1471.4203,87.6318
1472.3845,88.9792
1473.3488,90.4104
1474.3130,91.6348
1475.2772,92.4706
1476.2415,92.9506
1477.2057,93.1883
1478.1699,93.2703
1479.1342,93.2419
1480.0984,93.1238
1481.0626,92.9258
1482.0269,92.6515
1482.9911,92.3022
1483.9553,91.8816
1484.9196,91.3917
1485.8838,90.8231
1486.8480,90.1614
1487.8123,89.4316
1488.7765,88.7415
1489.7407,88.1967
1490.7050,87.7654
1491.6692,87.3435
1492.6334,86.8808
1493.5977,86.3726
1494.5619,85.8087
1495.5261,85.1724
1496.4904,84.4899
1497.4546,83.851
1498.4188,83.3215
1499.3831,82.8739
1500.3473,82.4676
1501.3115,82.1165
1502.2758,81.8535
1503.2400,81.6628
1504.2042,81.4249
1505.1685,80.9092
1506.1327,79.9644
1507.0969,78.9172
1508.0612,78.2698
1509.0254,77.9317
1509.9896,77.6304
1510.9539,77.3077
1511.9181,77.014
1512.8823,76.8204
1513.8466,76.8122
1514.8108,77.0777
1515.7750,77.6616
1516.7393,78.528
1517.7035,79.6111
1518.6677,80.9218
1519.6320,82.574
1520.5962,84.6369
1521.5604,86.9353
1522.5247,89.1039
1523.4889,90.9068
1524.4531,92.3963
1525.4174,93.7489
1526.3816,95.0417
1527.3458,96.1994
1528.3101,97.1135
1529.2743,97.7619
1530.2385,98.2194
1531.2028,98.5988
1532.1670,98.9888
1533.1312,99.3974
1534.0955,99.7445
1535.0597,99.9558
1536.0239,100.042
1536.9882,100.041
1537.9524,99.9204
1538.9166,99.5736
1539.8809,99.0522
1540.8451,98.7657
1541.8093,98.9377
1542.7736,99.3064
1543.7378,99.5455
1544.7020,99.6397
1545.6663,99.6302
1546.6305,99.544
1547.5947,99.4061
1548.5590,99.2467
1549.5232,99.0889
1550.4874,98.934
1551.4517,98.766
1552.4159,98.5756
1553.3801,98.3836
1554.3444,98.2323
1555.3086,98.1453
1556.2728,98.0978
1557.2371,98.0788
1558.2013,98.2133
1559.1655,98.48
1560.1298,98.4342
1561.0940,97.916
1562.0582,97.1788
1563.0225,96.4726
1563.9867,95.9078
1564.9509,95.4905
1565.9152,95.1701
1566.8794,94.8725
1567.8436,94.5336
1568.8079,94.1301
1569.7721,93.6808
1570.7363,93.2202
1571.7006,92.778
1572.6648,92.3588
1573.6290,91.9172
1574.5933,91.3663
1575.5575,90.6622
1576.5217,89.8867
1577.4860,89.1587
1578.4502,88.497
1579.4144,87.8631
1580.3787,87.2323
1581.3429,86.5928
1582.3071,85.9399
1583.2714,85.2812
1584.2356,84.6343
1585.1998,84.0121
1586.1641,83.4168
1587.1283,82.8479
1588.0925,82.3107
1589.0568,81.8147
1590.0210,81.3661
1590.9852,80.964
1591.9495,80.6055
1592.9137,80.2932
1593.8779,80.036
1594.8422,79.8391
1595.8064,79.6944
1596.7706,79.5815
1597.7349,79.4792
1598.6991,79.3773
1599.6633,79.2803
1600.6276,79.2041
1601.5918,79.1666
1602.5560,79.1776
1603.5203,79.2318
1604.4845,79.3138
1605.4487,79.4119
1606.4130,79.5312
1607.3772,79.694
1608.3414,79.9228
1609.3057,80.2139
1610.2699,80.5304
1611.2341,80.8346
1612.1984,81.1233
1613.1626,81.432
1614.1268,81.823
1615.0911,82.3709
1616.0553,83.1019
1617.0195,83.8882
1617.9838,84.5118
1618.9480,84.8961
1619.9122,85.145
1620.8765,85.4032
1621.8407,85.7572
1622.8049,86.2079
1623.7692,86.6828
1624.7334,87.0925
1625.6976,87.4032
1626.6619,87.6453
1627.6261,87.8577
1628.5903,88.046
1629.5546,88.1959
1630.5188,88.3107
1631.4830,88.4156
1632.4473,88.5233
1633.4115,88.6051
1634.3757,88.6255
1635.3400,88.6297
1636.3042,88.6994
1637.2684,88.7797
1638.2327,88.7664
1639.1969,88.6633
1640.1611,88.5367
1641.1254,88.4394
1642.0896,88.3869
1643.0538,88.3519
1644.0181,88.2653
1644.9823,88.0578
1645.9465,87.7583
1646.9108,87.5121
1647.8750,87.4215
1648.8392,87.4843
1649.8035,87.6766
1650.7677,87.9492
1651.7319,88.1995
1652.6962,88.3625
1653.6604,88.4516
1654.6246,88.3551
1655.5889,88.0055
1656.5531,87.5636
1657.5173,87.2069
1658.4816,87.0033
1659.4458,86.9288
1660.4100,86.9225
1661.3743,86.9391
1662.3385,86.9625
1663.3027,86.9777
1664.2670,86.9667
1665.2312,86.9313
1666.1954,86.8825
1667.1597,86.8183
1668.1239,86.735
1669.0881,86.6612
1670.0524,86.6455
1671.0166,86.6962
1671.9808,86.787
1672.9451,86.9042
1673.9093,87.039
1674.8735,87.1547
1675.8378,87.187
1676.8020,87.0914
1677.7662,86.896
1678.7305,86.6919
1679.6947,86.5714
1680.6589,86.5736
1681.6232,86.6761
1682.5874,86.8368
1683.5516,87.0393
1684.5159,87.2218
1685.4801,87.2477
1686.4443,87.0886
1687.4086,86.8557
1688.3728,86.6665
1689.3370,86.5759
1690.3013,86.5816
1691.2655,86.649
1692.2297,86.729
1693.1940,86.7654
1694.1582,86.7067
1695.1224,86.5369
1696.0867,86.3144
1697.0509,86.1726
1698.0151,86.2294
1698.9794,86.4542
1699.9436,86.6547
1700.9078,86.6453
1701.8721,86.4021
1702.8363,86.0434
1703.8005,85.719
1704.7648,85.5308
1705.7290,85.5025
1706.6932,85.5824
1707.6575,85.6827
1708.6217,85.743
1709.5859,85.7593
1710.5502,85.7621
1711.5144,85.7779
1712.4786,85.8108
1713.4429,85.85
1714.4071,85.9053
1715.3713,86.0647
1716.3356,86.4883
1717.2998,87.1896
1718.2640,87.8867
1719.2283,88.3216
1720.1925,88.5127
1721.1567,88.6207
1722.1210,88.7776
1723.0852,89.0319
1724.0494,89.3584
1725.0137,89.695
1725.9779,89.9843
1726.9421,90.2041
1727.9064,90.3715
1728.8706,90.5263
1729.8348,90.7108
1730.7991,90.9616
1731.7633,91.3164
1732.7275,91.8059
1733.6918,92.3767
1734.6560,92.8513
1735.6202,93.0988
1736.5845,93.1742
1737.5487,93.2231
1738.5129,93.3505
1739.4772,93.5757
1740.4414,93.8491
1741.4056,94.0971
1742.3699,94.2737
1743.3341,94.3847
1744.2983,94.4682
1745.2626,94.561
1746.2268,94.6866
1747.1910,94.8711
1748.1553,95.1606
1749.1195,95.5949
1750.0837,96.1286
1751.0480,96.6203
1752.0122,96.9526
1752.9764,97.1212
1753.9407,97.1984
1754.9049,97.2585
1755.8691,97.3412
1756.8334,97.4504
1757.7976,97.5737
1758.7618,97.7024
1759.7261,97.8413
1760.6903,97.9996
1761.6545,98.1732
1762.6188,98.3383
1763.5830,98.4687
1764.5472,98.5594
1765.5115,98.6264
1766.4757,98.6868
1767.4399,98.7427
1768.4042,98.7827
1769.3684,98.8001
1770.3326,98.8175
1771.2969,98.889
1772.2611,99.0465
1773.2253,99.2391
1774.1896,99.3766
1775.1538,99.4264
1776.1180,99.4259
1777.0823,99.4281
1778.0465,99.4619
1779.0107,99.5282
1779.9750,99.6164
1780.9392,99.7179
1781.9034,99.8289
1782.8677,99.9446
1783.8319,100.051
1784.7961,100.126
1785.7604,100.154
1786.7246,100.142
1787.6888,100.113
1788.6531,100.09
1789.6173,100.079
1790.5815,100.072
1791.5458,100.074
1792.5100,100.093
1793.4742,100.107
1794.4385,100.085
1795.4027,100.038
1796.3669,100.002
1797.3312,100.004
1798.2954,100.044
1799.2596,100.109
1800.2239,100.187
1801.1881,100.266
1802.1523,100.333
1803.1166,100.376
1804.0808,100.392
1805.0450,100.383
1806.0093,100.355
1806.9735,100.313
1807.9377,100.266
1808.9020,100.229
1809.8662,100.223
1810.8304,100.257
1811.7947,100.321
1812.7589,100.39
1813.7231,100.446
1814.6874,100.485
1815.6516,100.507
1816.6158,100.515
1817.5801,100.509
1818.5443,100.489
1819.5085,100.458
1820.4728,100.424
1821.4370,100.393
1822.4012,100.366
1823.3655,100.339
1824.3297,100.303
1825.2939,100.252
1826.2582,100.184
1827.2224,100.112
1828.1866,100.061
1829.1509,100.057
1830.1151,100.101
1831.0793,100.157
1832.0436,100.178
1833.0078,100.17
1833.9720,100.156
1834.9363,100.138
1835.9005,100.128
1836.8647,100.126
1837.8290,100.128
1838.7932,100.137
1839.7574,100.162
1840.7217,100.203
1841.6859,100.247
1842.6501,100.27
1843.6144,100.267
1844.5786,100.251
1845.5428,100.23
1846.5071,100.208
1847.4713,100.195
1848.4355,100.207
1849.3998,100.244
1850.3640,100.295
1851.3282,100.338
1852.2925,100.361
1853.2567,100.364
1854.2209,100.353
1855.1852,100.337
1856.1494,100.318
1857.1136,100.3
1858.0779,100.287
1859.0421,100.281
1860.0063,100.282
1860.9706,100.282
1861.9348,100.268
1862.8990,100.229
1863.8633,100.163
1864.8275,100.078
1865.7917,99.9842
1866.7560,99.9099
1867.7202,99.8974
1868.6844,99.9737
1869.6487,100.107
1870.6129,100.229
1871.5771,100.299
1872.5414,100.323
1873.5056,100.328
1874.4698,100.33
1875.4341,100.335
1876.3983,100.34
1877.3625,100.344
1878.3268,100.345
1879.2910,100.343
1880.2552,100.338
1881.2195,100.328
1882.1837,100.312
1883.1479,100.29
1884.1122,100.265
1885.0764,100.241
1886.0406,100.221
1887.0049,100.208
1887.9691,100.203
1888.9333,100.205
1889.8976,100.208
1890.8618,100.205
1891.8260,100.188
1892.7903,100.163
1893.7545,100.141
1894.7188,100.133
1895.6830,100.145
1896.6472,100.17
1897.6115,100.196
1898.5757,100.212
1899.5399,100.213
1900.5042,100.201
1901.4684,100.184
1902.4326,100.162
1903.3969,100.135
1904.3611,100.099
1905.3253,100.051
1906.2896,99.9933
1907.2538,99.9389
1908.2180,99.9031
1909.1823,99.8973
1910.1465,99.9187
1911.1107,99.951
1912.0750,99.9763
1913.0392,99.9874
1914.0034,99.9872
1914.9677,99.9812
1915.9319,99.9719
1916.8961,99.957
1917.8604,99.9302
1918.8246,99.8854
1919.7888,99.8249
1920.7531,99.7643
1921.7173,99.7267
1922.6815,99.7294
1923.6458,99.772
1924.6100,99.8361
1925.5742,99.8972
1926.5385,99.9398
1927.5027,99.9619
1928.4669,99.9696
1929.4312,99.9699
1930.3954,99.9678
1931.3596,99.9657
1932.3239,99.9655
1933.2881,99.9694
1934.2523,99.9786
1935.2166,99.9907
1936.1808,99.9997
1937.1450,99.9988
1938.1093,99.9836
1939.0735,99.9538
1940.0377,99.9136
1941.0020,99.8726
1941.9662,99.8444
1942.9304,99.8388
1943.8947,99.8545
1944.8589,99.8825
1945.8231,99.9144
1946.7874,99.9466
1947.7516,99.9774
1948.7158,100.004
1949.6801,100.022
1950.6443,100.029
1951.6085,100.028
1952.5728,100.024
1953.5370,100.023
1954.5012,100.03
1955.4655,100.044
1956.4297,100.059
1957.3939,100.072
1958.3582,100.08
1959.3224,100.084
1960.2866,100.084
1961.2509,100.078
1962.2151,100.066
1963.1793,100.045
1964.1436,100.019
1965.1078,99.9971
1966.0720,99.9918
1967.0363,100.011
1968.0005,100.052
1968.9647,100.101
1969.9290,100.146
1970.8932,100.175
1971.8574,100.191
1972.8217,100.196
1973.7859,100.199
1974.7501,100.201
1975.7144,100.206
1976.6786,100.21
1977.6428,100.214
1978.6071,100.216
1979.5713,100.218
1980.5355,100.221
1981.4998,100.223
1982.4640,100.223
1983.4282,100.218
1984.3925,100.207
1985.3567,100.19
1986.3209,100.168
1987.2852,100.143
1988.2494,100.117
1989.2136,100.094
1990.1779,100.08
1991.1421,100.079
1992.1063,100.094
1993.0706,100.12
1994.0348,100.149
1994.9990,100.173
1995.9633,100.187
1996.9275,100.192
1997.8917,100.193
1998.8560,100.193
1999.8202,100.195
2000.7844,100.199
2001.7487,100.202
2002.7129,100.201
2003.6771,100.195
2004.6414,100.182
2005.6056,100.167
2006.5698,100.153
2007.5341,100.144
2008.4983,100.142
2009.4625,100.146
2010.4268,100.152
2011.3910,100.153
2012.3552,100.145
2013.3195,100.125
2014.2837,100.097
2015.2479,100.068
2016.2122,100.049
2017.1764,100.047
2018.1406,100.061
2019.1049,100.084
2020.0691,100.107
2021.0333,100.122
2021.9976,100.13
2022.9618,100.131
2023.9260,100.129
2024.8903,100.128
2025.8545,100.128
2026.8187,100.129
2027.7830,100.129
2028.7472,100.128
2029.7114,100.126
2030.6757,100.123
2031.6399,100.119
2032.6041,100.114
2033.5684,100.108
2034.5326,100.101
2035.4968,100.093
2036.4611,100.082
2037.4253,100.067
2038.3895,100.047
2039.3538,100.026
2040.3180,100.009
2041.2822,100
2042.2465,100.002
2043.2107,100.011
2044.1749,100.021
2045.1392,100.027
2046.1034,100.026
2047.0676,100.02
2048.0320,100.012
2048.9961,100.004
2049.9604,99.9979
2050.9246,99.9942
2051.8889,99.9915
2052.8530,99.9883
2053.8174,99.9832
2054.7815,99.9762
2055.7458,99.9681
2056.7100,99.9603
2057.6743,99.9539
2058.6384,99.9483
2059.6028,99.9416
2060.5669,99.9313
2061.5313,99.9169
2062.4954,99.9009
2063.4597,99.8885
2064.4238,99.885
2065.3882,99.8925
2066.3523,99.9082
2067.3167,99.9263
2068.2808,99.941
2069.2451,99.9495
2070.2092,99.9523
2071.1736,99.9516
2072.1377,99.9495
2073.1021,99.9472
2074.0662,99.9445
2075.0305,99.9418
2075.9946,99.9397
2076.9590,99.9387
2077.9231,99.9387
2078.8875,99.9384
2079.8516,99.9361
2080.8159,99.9312
2081.7800,99.9245
2082.7444,99.9176
2083.7085,99.9118
2084.6729,99.9073
2085.6370,99.9028
2086.6013,99.8971
2087.5654,99.8901
2088.5298,99.8828
2089.4939,99.8772
2090.4583,99.8747
2091.4224,99.8754
2092.3867,99.8783
2093.3508,99.8817
2094.3152,99.8845
2095.2793,99.8859
2096.2437,99.8859
2097.2078,99.8845
2098.1721,99.8816
2099.1362,99.8772
2100.1006,99.8706
2101.0647,99.8647
2102.0291,99.8589
2102.9932,99.8536
2103.9575,99.849
2104.9216,99.8449
2105.8860,99.8414
2106.8501,99.8384
2107.8145,99.8357
2108.7786,99.8329
2109.7429,99.8291
2110.7070,99.8237
2111.6714,99.8167
2112.6355,99.809
2113.5999,99.8025
2114.5640,99.7985
2115.5283,99.798
2116.4924,99.8002
2117.4568,99.8038
2118.4209,99.8071
2119.3853,99.8087
2120.3494,99.808
2121.3137,99.805
2122.2778,99.8003
2123.2422,99.7943
2124.2063,99.7879
2125.1707,99.7819
2126.1348,99.7774
2127.0991,99.7751
2128.0632,99.7754
2129.0276,99.7776
2129.9917,99.7803
2130.9561,99.7816
2131.9202,99.7798
2132.8845,99.7745
2133.8486,99.7673
2134.8130,99.7608
2135.7771,99.7582
2136.7415,99.7612
2137.7056,99.7697
2138.6699,99.7813
2139.6340,99.7928
2140.5984,99.8016
2141.5625,99.8069
2142.5269,99.8095
2143.4910,99.8115
2144.4553,99.8149
2145.4194,99.8206
2146.3838,99.8279
2147.3479,99.8351
2148.3123,99.8405
2149.2764,99.843
2150.2407,99.8428
2151.2048,99.8408
2152.1692,99.8387
2153.1333,99.8375
2154.0977,99.8378
2155.0618,99.8394
2156.0261,99.842
2156.9902,99.8455
2157.9546,99.8499
2158.9187,99.8551
2159.8831,99.8612
2160.8472,99.8678
2161.8115,99.8744
2162.7756,99.8806
2163.7400,99.8858
2164.7041,99.8895
2165.6685,99.8913
2166.6326,99.8913
2167.5969,99.8902
2168.5610,99.8893
2169.5254,99.8898
2170.4895,99.8926
2171.4539,99.8972
2172.4180,99.9021
2173.3823,99.9058
2174.3464,99.9074
2175.3108,99.907
2176.2749,99.9058
2177.2393,99.9047
2178.2034,99.9042
2179.1677,99.9038
2180.1318,99.903
2181.0962,99.9012
2182.0603,99.899
2183.0247,99.8973
2183.9888,99.8975
2184.9531,99.9003
2185.9172,99.9055
2186.8816,99.9124
2187.8457,99.9201
2188.8101,99.9276
2189.7742,99.9342
2190.7385,99.9396
2191.7026,99.9437
2192.6670,99.9469
2193.6311,99.9495
2194.5955,99.952
2195.5596,99.9546
2196.5239,99.9571
2197.4880,99.9589
2198.4524,99.9593
2199.4165,99.9582
2200.3809,99.9559
2201.3450,99.9533
2202.3093,99.9511
2203.2734,99.9497
2204.2378,99.9487
2205.2019,99.9477
2206.1663,99.9466
2207.1304,99.9457
2208.0947,99.9453
2209.0588,99.9453
2210.0232,99.9449
2210.9873,99.9425
2211.9517,99.937
2212.9158,99.9286
2213.8801,99.9187
2214.8442,99.9095
2215.8086,99.9026
2216.7727,99.898
2217.7371,99.8938
2218.7012,99.8878
2219.6655,99.8785
2220.6296,99.8664
2221.5940,99.8538
2222.5581,99.8433
2223.5225,99.8365
2224.4866,99.8327
2225.4509,99.8302
2226.4150,99.8266
2227.3794,99.8208
2228.3435,99.8129
2229.3079,99.8037
2230.2720,99.7941
2231.2363,99.7847
2232.2004,99.7757
2233.1648,99.7675
2234.1289,99.7609
2235.0933,99.7569
2236.0574,99.7556
2237.0217,99.7558
2237.9858,99.7549
2238.9502,99.7504
2239.9143,99.741
2240.8787,99.7275
2241.8428,99.7121
2242.8071,99.6974
2243.7712,99.6847
2244.7356,99.6739
2245.6997,99.6635
2246.6641,99.6525
2247.6282,99.6404
2248.5925,99.6278
2249.5566,99.6159
2250.5210,99.6054
2251.4851,99.5957
2252.4495,99.5857
2253.4136,99.5734
2254.3779,99.5579
2255.3420,99.5389
2256.3064,99.5179
2257.2705,99.4968
2258.2349,99.4777
2259.1990,99.4617
2260.1633,99.449
2261.1274,99.4386
2262.0918,99.43
2263.0559,99.4229
2264.0203,99.4178
2264.9844,99.4147
2265.9487,99.4126
2266.9128,99.4093
2267.8772,99.4023
2268.8413,99.39
2269.8057,99.3736
2270.7698,99.356
2271.7341,99.3411
2272.6982,99.3319
2273.6626,99.3292
2274.6267,99.3321
2275.5911,99.3388
2276.5552,99.348
2277.5195,99.3589
2278.4836,99.3715
2279.4480,99.3846
2280.4121,99.3965
2281.3765,99.404
2282.3406,99.4041
2283.3049,99.3942
2284.2690,99.374
2285.2334,99.3448
2286.1975,99.3102
2287.1619,99.2738
2288.1260,99.2381
2289.0903,99.2035
2290.0544,99.1686
2291.0188,99.1321
2291.9829,99.0951
2292.9473,99.061
2293.9114,99.0344
2294.8757,99.0178
2295.8398,99.0113
2296.8042,99.0127
2297.7683,99.0205
2298.7327,99.0358
2299.6968,99.0618
2300.6611,99.1008
2301.6252,99.1511
2302.5896,99.2056
2303.5537,99.2534
2304.5181,99.2848
2305.4822,99.2958
2306.4465,99.2925
2307.4106,99.2895
2308.3750,99.3057
2309.3391,99.3555
2310.3035,99.4415
2311.2676,99.5516
2312.2319,99.6643
2313.1960,99.7584
2314.1604,99.8244
2315.1245,99.8682
2316.0889,99.9077
2317.0530,99.962
2318.0173,100.04
2318.9814,100.131
2319.9458,100.205
2320.9099,100.219
2321.8743,100.139
2322.8384,99.9561
2323.8027,99.7043
2324.7668,99.4458
2325.7312,99.2485
2326.6953,99.1581
2327.6597,99.1804
2328.6238,99.2784
2329.5881,99.3864
2330.5522,99.4379
2331.5166,99.3965
2332.4807,99.272
2333.4451,99.1096
2334.4092,98.9626
2335.3735,98.8648
2336.3376,98.8169
2337.3020,98.7914
2338.2661,98.7504
2339.2305,98.6697
2340.1946,98.5622
2341.1589,98.4911
2342.1230,98.5556
2343.0874,98.8121
2344.0515,99.157
2345.0159,99.3557
2345.9800,99.2666
2346.9443,98.9691
2347.9084,98.6613
2348.8728,98.5067
2349.8369,98.5571
2350.8013,98.7528
2351.7654,98.9424
2352.7297,98.9799
2353.6938,98.8311
2354.6582,98.58
2355.6223,98.3204
2356.5867,98.0723
2357.5508,97.8242
2358.5151,97.6028
2359.4792,97.4638
2360.4436,97.4333
2361.4077,97.4897
2362.3721,97.6061
2363.3362,97.7841
2364.3005,98.0403
2365.2646,98.374
2366.2290,98.758
2367.1931,99.1543
2368.1575,99.5325
2369.1216,99.8729
2370.0859,100.164
2371.0500,100.397
2372.0144,100.567
2372.9785,100.673
2373.9429,100.712
2374.9070,100.68
2375.8713,100.58
2376.8354,100.419
2377.7998,100.215
2378.7639,99.9927
2379.7283,99.7768
2380.6924,99.5903
2381.6567,99.4486
2382.6208,99.3579
2383.5852,99.3155
2384.5493,99.3115
2385.5137,99.3315
2386.4778,99.3608
2387.4421,99.3875
2388.4063,99.4044
2389.3706,99.4104
2390.3347,99.4087
2391.2991,99.4044
2392.2632,99.402
2393.2275,99.4034
2394.1917,99.408
2395.1560,99.414
2396.1201,99.4202
2397.0845,99.4259
2398.0486,99.4309
2399.0129,99.435
2399.9771,99.4372
2400.9414,99.4357
2401.9055,99.4299
2402.8699,99.4205
2403.8340,99.41
2404.7983,99.4016
2405.7625,99.3974
2406.7268,99.3974
2407.6909,99.3997
2408.6553,99.4016
2409.6194,99.4016
2410.5837,99.4
2411.5479,99.3989
2412.5122,99.4005
2413.4763,99.4058
2414.4407,99.414
2415.4048,99.4232
2416.3691,99.4318
2417.3333,99.4388
2418.2976,99.4447
2419.2617,99.4501
2420.2261,99.4553
2421.1902,99.4602
2422.1545,99.4642
2423.1187,99.4678
2424.0830,99.472
2425.0471,99.4779
2426.0115,99.4862
2426.9756,99.4964
2427.9399,99.5072
2428.9041,99.5175
2429.8684,99.5269
2430.8325,99.5363
2431.7969,99.5467
2432.7610,99.5587
2433.7253,99.5715
2434.6895,99.5839
2435.6538,99.5947
2436.6179,99.604
2437.5823,99.6127
2438.5464,99.6225
2439.5107,99.6342
2440.4749,99.6478
2441.4392,99.662
2442.4033,99.6753
2443.3677,99.6865
2444.3318,99.6949
2445.2961,99.7003
2446.2603,99.7027
2447.2246,99.7024
2448.1887,99.6998
2449.1531,99.6961
2450.1172,99.6927
2451.0815,99.6915
2452.0457,99.6937
2453.0100,99.6991
2453.9741,99.7061
2454.9385,99.7123
2455.9026,99.7153
2456.8669,99.714
2457.8311,99.7087
2458.7954,99.701
2459.7595,99.6928
2460.7239,99.6858
2461.6880,99.6806
2462.6523,99.6775
2463.6165,99.6762
2464.5808,99.6758
2465.5449,99.6745
2466.5093,99.6708
2467.4734,99.6637
2468.4377,99.6536
2469.4019,99.6429
2470.3662,99.6347
2471.3303,99.6311
2472.2947,99.6324
2473.2588,99.6365
2474.2231,99.6406
2475.1873,99.6428
2476.1516,99.6427
2477.1157,99.6412
2478.0801,99.6399
2479.0442,99.6393
2480.0085,99.6394
2480.9727,99.6398
2481.9370,99.6404
2482.9011,99.6416
2483.8655,99.6442
2484.8296,99.6486
2485.7939,99.6549
2486.7581,99.6633
2487.7224,99.6736
2488.6865,99.6855
2489.6509,99.6983
2490.6150,99.7109
2491.5793,99.7218
2492.5435,99.7299
2493.5078,99.7354
2494.4719,99.7401
2495.4363,99.7464
2496.4004,99.7562
2497.3647,99.7703
2498.3289,99.7874
2499.2932,99.805
2500.2573,99.8206
2501.2217,99.8327
2502.1858,99.841
2503.1501,99.8465
2504.1143,99.8502
2505.0786,99.8526
2506.0427,99.8541
2507.0071,99.8542
2507.9712,99.8529
2508.9355,99.85
2509.8997,99.8456
2510.8640,99.8402
2511.8281,99.8347
2512.7925,99.8306
2513.7566,99.8296
2514.7209,99.8327
2515.6851,99.8396
2516.6494,99.8482
2517.6135,99.8551
2518.5779,99.8577
2519.5420,99.855
2520.5063,99.8485
2521.4705,99.8414
2522.4348,99.8369
2523.3989,99.837
2524.3633,99.8409
2525.3274,99.8468
2526.2917,99.8527
2527.2559,99.8577
2528.2202,99.8625
2529.1843,99.8684
2530.1487,99.8765
2531.1128,99.8866
2532.0771,99.8979
2533.0413,99.9095
2534.0056,99.9212
2534.9697,99.9334
2535.9341,99.947
2536.8982,99.9626
2537.8625,99.9806
2538.8267,100
2539.7910,100.021
2540.7551,100.04
2541.7195,100.057
2542.6836,100.071
2543.6479,100.081
2544.6121,100.09
2545.5764,100.097
2546.5405,100.106
2547.5049,100.114
2548.4690,100.121
2549.4333,100.125
2550.3975,100.123
2551.3618,100.118
2552.3259,100.112
2553.2903,100.108
2554.2544,100.106
2555.2188,100.106
2556.1829,100.104
2557.1472,100.099
2558.1113,100.09
2559.0757,100.078
2560.0398,100.066
2561.0042,100.056
2561.9683,100.048
2562.9326,100.039
2563.8967,100.028
2564.8611,100.015
2565.8252,100.001
2566.7896,99.9895
2567.7537,99.9816
2568.7180,99.9774
2569.6821,99.9754
2570.6465,99.9738
2571.6106,99.9715
2572.5750,99.9692
2573.5391,99.9688
2574.5034,99.972
2575.4675,99.9799
2576.4319,99.9923
2577.3960,100.009
2578.3604,100.028
2579.3245,100.051
2580.2888,100.076
2581.2529,100.102
2582.2173,100.129
2583.1814,100.155
2584.1458,100.18
2585.1099,100.203
2586.0742,100.224
2587.0383,100.244
2588.0027,100.263
2588.9668,100.279
2589.9312,100.293
2590.8953,100.305
2591.8596,100.316
2592.8237,100.326
2593.7881,100.338
2594.7522,100.35
2595.7166,100.362
2596.6807,100.372
2597.6450,100.382
2598.6091,100.39
2599.5735,100.398
2600.5376,100.405
2601.5020,100.41
2602.4661,100.41
2603.4304,100.405
2604.3945,100.394
2605.3589,100.38
2606.3230,100.366
2607.2874,100.354
2608.2515,100.344
2609.2158,100.335
2610.1799,100.324
2611.1443,100.312
2612.1084,100.298
2613.0728,100.283
2614.0369,100.268
2615.0012,100.255
2615.9653,100.244
2616.9297,100.238
2617.8938,100.237
2618.8582,100.24
2619.8223,100.247
2620.7866,100.254
2621.7507,100.261
2622.7151,100.266
2623.6792,100.272
2624.6436,100.278
2625.6077,100.288
2626.5720,100.301
2627.5361,100.318
2628.5005,100.337
2629.4646,100.358
2630.4290,100.38
2631.3931,100.402
2632.3574,100.424
2633.3215,100.445
2634.2859,100.465
2635.2500,100.485
2636.2144,100.504
2637.1785,100.523
2638.1428,100.542
2639.1069,100.563
2640.0713,100.583
2641.0354,100.604
2641.9998,100.622
2642.9639,100.637
2643.9282,100.646
2644.8923,100.65
2645.8567,100.65
2646.8208,100.646
2647.7852,100.641
2648.7493,100.634
2649.7136,100.625
2650.6777,100.615
2651.6421,100.605
2652.6062,100.597
2653.5706,100.591
2654.5347,100.586
2655.4990,100.581
2656.4631,100.572
2657.4275,100.559
2658.3916,100.543
2659.3560,100.526
2660.3201,100.51
2661.2844,100.497
2662.2485,100.487
2663.2129,100.48
2664.1770,100.477
2665.1414,100.476
2666.1055,100.479
2667.0698,100.484
2668.0339,100.491
2668.9983,100.499
2669.9624,100.508
2670.9268,100.518
2671.8909,100.529
2672.8552,100.541
2673.8193,100.554
2674.7837,100.568
2675.7478,100.584
2676.7122,100.599
2677.6763,100.612
2678.6406,100.62
2679.6047,100.624
2680.5691,100.624
2681.5332,100.624
2682.4976,100.625
2683.4617,100.63
2684.4260,100.637
2685.3901,100.644
2686.3545,100.648
2687.3186,100.647
2688.2830,100.643
2689.2471,100.639
2690.2114,100.635
2691.1755,100.634
2692.1399,100.633
2693.1040,100.631
2694.0684,100.624
2695.0325,100.614
2695.9968,100.598
2696.9609,100.58
2697.9253,100.561
2698.8894,100.541
2699.8538,100.522
2700.8179,100.503
2701.7822,100.485
2702.7463,100.466
2703.7107,100.446
2704.6748,100.424
2705.6392,100.4
2706.6033,100.375
2707.5676,100.351
2708.5317,100.331
2709.4961,100.318
2710.4602,100.311
2711.4246,100.306
2712.3887,100.298
2713.3530,100.284
2714.3171,100.264
2715.2815,100.239
2716.2456,100.214
2717.2100,100.193
2718.1741,100.181
2719.1384,100.177
2720.1025,100.181
2721.0669,100.19
2722.0310,100.199
2722.9954,100.206
2723.9595,100.21
2724.9238,100.211
2725.8879,100.21
2726.8523,100.208
2727.8164,100.206
2728.7808,100.205
2729.7449,100.203
2730.7092,100.201
2731.6733,100.199
2732.6377,100.2
2733.6018,100.202
2734.5662,100.206
2735.5303,100.209
2736.4946,100.206
2737.4587,100.197
2738.4231,100.181
2739.3872,100.164
2740.3516,100.147
2741.3157,100.136
2742.2800,100.129
2743.2441,100.127
2744.2085,100.129
2745.1726,100.131
2746.1370,100.135
2747.1011,100.139
2748.0654,100.14
2749.0295,100.138
2749.9939,100.132
2750.9580,100.124
2751.9224,100.117
2752.8865,100.113
2753.8508,100.114
2754.8149,100.12
2755.7793,100.128
2756.7434,100.135
2757.7078,100.139
2758.6719,100.138
2759.6362,100.135
2760.6003,100.131
2761.5647,100.129
2762.5288,100.129
2763.4932,100.131
2764.4573,100.132
2765.4216,100.132
2766.3857,100.129
2767.3501,100.127
2768.3142,100.127
2769.2786,100.131
2770.2427,100.139
2771.2070,100.146
2772.1711,100.145
2773.1355,100.134
2774.0996,100.112
2775.0640,100.084
2776.0281,100.054
2776.9924,100.027
2777.9565,100.003
2778.9209,99.9766
2779.8850,99.9441
2780.8494,99.9059
2781.8135,99.864
2782.7778,99.8222
2783.7419,99.7847
2784.7063,99.7531
2785.6704,99.7259
2786.6348,99.6992
2787.5989,99.6681
2788.5632,99.6289
2789.5273,99.5806
2790.4917,99.5252
2791.4558,99.467
2792.4202,99.4109
2793.3843,99.3594
2794.3486,99.3122
2795.3127,99.2659
2796.2771,99.2162
2797.2412,99.1599
2798.2056,99.097
2799.1697,99.03
2800.1340,98.9626
2801.0981,98.8981
2802.0625,98.8383
2803.0266,98.7834
2803.9910,98.7324
2804.9551,98.6836
2805.9194,98.6347
2806.8835,98.5829
2807.8479,98.5252
2808.8120,98.459
2809.7764,98.3828
2810.7405,98.2969
2811.7048,98.2032
2812.6689,98.1046
2813.6333,98.0044
2814.5974,97.9046
2815.5618,97.8051
2816.5259,97.7026
2817.4902,97.5918
2818.4543,97.4664
2819.4187,97.3216
2820.3828,97.1557
2821.3472,96.9699
2822.3113,96.7674
2823.2756,96.5513
2824.2397,96.3238
2825.2041,96.0855
2826.1682,95.8367
2827.1326,95.5769
2828.0967,95.3062
2829.0610,95.0245
2830.0251,94.7326
2830.9895,94.4326
2831.9536,94.1283
2832.9180,93.8246
2833.8821,93.5269
2834.8464,93.2397
2835.8105,92.9659
2836.7749,92.7074
2837.7390,92.4664
2838.7034,92.2457
2839.6675,92.0483
2840.6318,91.8754
2841.5959,91.724
2842.5603,91.5863
2843.5244,91.4515
2844.4888,91.3102
2845.4529,91.1605
2846.4172,91.0103
2847.3813,90.8765
2848.3457,90.7781
2849.3098,90.7272
2850.2742,90.7228
2851.2383,90.7498
2852.2026,90.785
2853.1667,90.8068
2854.1311,90.8014
2855.0952,90.7659
2856.0596,90.7038
2857.0237,90.6201
2857.9880,90.5168
2858.9521,90.3925
2859.9165,90.2442
2860.8806,90.0711
2861.8450,89.8749
2862.8091,89.661
2863.7734,89.4362
2864.7375,89.2085
2865.7019,88.9859
2866.6660,88.7757
2867.6304,88.5831
2868.5945,88.4106
2869.5588,88.2572
2870.5229,88.119
2871.4873,87.9905
2872.4514,87.8657
2873.4158,87.7399
2874.3799,87.6093
2875.3442,87.4714
2876.3083,87.3236
2877.2727,87.1636
2878.2368,86.9894
2879.2012,86.8016
2880.1653,86.6047
2881.1296,86.4074
2882.0938,86.2212
2883.0581,86.0567
2884.0222,85.9203
2884.9866,85.812
2885.9507,85.7251
2886.9150,85.6477
2887.8792,85.5664
2888.8435,85.4707
2889.8076,85.3578
2890.7720,85.2343
2891.7361,85.1135
2892.7004,85.0062
2893.6646,84.9103
2894.6289,84.8065
2895.5930,84.6658
2896.5574,84.4668
2897.5215,84.2141
2898.4858,83.9446
2899.4500,83.7149
2900.4143,83.5763
2901.3784,83.5506
2902.3428,83.6213
2903.3069,83.7436
2904.2712,83.8672
2905.2354,83.9559
2906.1997,83.9963
2907.1638,83.9929
2908.1282,83.9576
2909.0923,83.9017
2910.0566,83.8326
2911.0208,83.7538
2911.9851,83.667
2912.9492,83.5726
2913.9136,83.4706
2914.8777,83.3628
2915.8420,83.2543
2916.8062,83.1528
2917.7705,83.0658
2918.7346,82.9967
2919.6990,82.9443
2920.6631,82.9034
2921.6274,82.8689
2922.5916,82.8377
2923.5559,82.8086
2924.5200,82.7803
2925.4844,82.7499
2926.4485,82.7138
2927.4128,82.6691
2928.3770,82.6161
2929.3413,82.5586
2930.3054,82.503
2931.2698,82.4571
2932.2339,82.4285
2933.1982,82.4234
2934.1624,82.4457
2935.1267,82.4964
2936.0908,82.5729
2937.0552,82.6709
2938.0193,82.7859
2938.9836,82.9153
2939.9478,83.0596
2940.9121,83.222
2941.8762,83.4058
2942.8406,83.6113
2943.8047,83.8325
2944.7690,84.0567
2945.7332,84.2668
2946.6975,84.4463
2947.6616,84.5838
2948.6260,84.6756
2949.5901,84.7245
2950.5544,84.7357
2951.5186,84.7134
2952.4829,84.6594
2953.4470,84.5739
2954.4114,84.4587
2955.3755,84.3187
2956.3398,84.1605
2957.3040,83.9903
2958.2683,83.811
2959.2324,83.6207
2960.1968,83.414
2961.1609,83.1845
2962.1252,82.928
2963.0894,82.6448
2964.0537,82.341
2965.0178,82.0279
2965.9822,81.7206
2966.9463,81.436
2967.9106,81.1912
2968.8748,81.0018
2969.8391,80.8808
2970.8032,80.8371
2971.7676,80.8745
2972.7317,80.9901
2973.6960,81.1756
2974.6602,81.419
2975.6245,81.7076
2976.5886,82.0305
2977.5530,82.3799
2978.5171,82.7504
2979.4814,83.1372
2980.4456,83.5323
2981.4099,83.9216
2982.3740,84.2851
2983.3384,84.6033
2984.3025,84.8681
2985.2668,85.0944
2986.2310,85.3231
2987.1953,85.6094
2988.1594,85.9989
2989.1238,86.5029
2990.0879,87.088
2991.0522,87.6882
2992.0164,88.2334
2992.9807,88.6792
2993.9448,89.0224
2994.9092,89.2943
2995.8733,89.5387
2996.8376,89.7892
2997.8018,90.058
2998.7661,90.3393
2999.7302,90.6215
3000.6946,90.8984
3001.6587,91.1725
3002.6230,91.4527
3003.5872,91.7471
3004.5515,92.0585
3005.5156,92.3826
3006.4800,92.7103
3007.4441,93.0315
3008.4084,93.3397
3009.3726,93.6344
3010.3369,93.9215
3011.3010,94.2095
3012.2654,94.5056
3013.2295,94.8105
3014.1938,95.1182
3015.1580,95.4189
3016.1223,95.7035
3017.0864,95.9677
3018.0508,96.2122
3019.0149,96.4409
3019.9792,96.6585
3020.9434,96.8685
3021.9077,97.073
3022.8718,97.2728
3023.8362,97.4675
3024.8003,97.6549
3025.7646,97.8314
3026.7288,97.9934
3027.6931,98.1397
3028.6572,98.2726
3029.6216,98.3976
3030.5857,98.5208
3031.5500,98.6454
3032.5142,98.7704
3033.4785,98.8921
3034.4426,99.0062
3035.4070,99.111
3036.3711,99.2071
3037.3354,99.2964
3038.2996,99.3793
3039.2639,99.4535
3040.2280,99.5147
3041.1924,99.5591
3042.1565,99.5849
3043.1208,99.5948
3044.0850,99.5948
3045.0493,99.5924
3046.0134,99.5941
3046.9778,99.6023
3047.9419,99.6146
3048.9063,99.6248
3049.8704,99.6257
3050.8347,99.5909
3051.7988,99.5379
3052.7632,99.4771
3053.7273,99.4158
3054.6917,99.3603
3055.6558,99.3139
3056.6201,99.2759
3057.5842,99.2425
3058.5486,99.2078
3059.5127,99.166
3060.4771,99.1135
3061.4412,99.0501
3062.4055,98.9801
3063.3696,98.9109
3064.3340,98.8504
3065.2981,98.8029
3066.2625,98.7672
3067.2266,98.7376
3068.1909,98.7078
3069.1550,98.6746
3070.1194,98.6393
3071.0835,98.6055
3072.0479,98.5754
3073.0120,98.5471
3073.9763,98.5154
3074.9404,98.4751
3075.9048,98.4245
3076.8689,98.3676
3077.8333,98.3122
3078.7974,98.2657
3079.7617,98.2319
3080.7258,98.209
3081.6902,98.1916
3082.6543,98.1738
3083.6187,98.1517
3084.5828,98.1243
3085.5471,98.0925
3086.5112,98.0573
3087.4756,98.0187
3088.4397,97.9752
3089.4041,97.9253
3090.3682,97.868
3091.3325,97.8039
3092.2966,97.7352
3093.2610,97.6642
3094.2251,97.5927
3095.1895,97.5219
3096.1536,97.4522
3097.1179,97.3848
3098.0820,97.3219
3099.0464,97.2662
3100.0105,97.2193
3100.9749,97.1803
3101.9390,97.1456
3102.9033,97.1099
3103.8674,97.0688
3104.8318,97.0203
3105.7959,96.9653
3106.7603,96.9059
3107.7244,96.8443
3108.6887,96.7815
3109.6528,96.7175
3110.6172,96.6518
3111.5813,96.5852
3112.5457,96.5192
3113.5098,96.4562
3114.4741,96.3974
3115.4382,96.3423
3116.4026,96.289
3117.3667,96.2349
3118.3311,96.1787
3119.2952,96.1214
3120.2595,96.0657
3121.2236,96.0148
3122.1880,95.9707
3123.1521,95.9337
3124.1165,95.9017
3125.0806,95.8714
3126.0449,95.8384
3127.0090,95.7985
3127.9734,95.7483
3128.9375,95.6872
3129.9019,95.6182
3130.8660,95.5476
3131.8303,95.4832
3132.7944,95.4306
3133.7588,95.3906
3134.7229,95.3589
3135.6873,95.3282
3136.6514,95.2916
3137.6157,95.2451
3138.5798,95.1889
3139.5442,95.1258
3140.5083,95.0592
3141.4727,94.9917
3142.4368,94.9243
3143.4011,94.8565
3144.3652,94.7884
3145.3296,94.7213
3146.2937,94.6588
3147.2581,94.6045
3148.2222,94.5605
3149.1865,94.5244
3150.1506,94.489
3151.1150,94.4455
3152.0791,94.3874
3153.0435,94.3141
3154.0076,94.2314
3154.9719,94.148
3155.9360,94.0712
3156.9004,94.0033
3157.8645,93.9422
3158.8289,93.8838
3159.7930,93.8252
3160.7573,93.766
3161.7214,93.7074
3162.6858,93.6502
3163.6499,93.5934
3164.6143,93.5353
3165.5784,93.4748
3166.5427,93.4133
3167.5068,93.3538
3168.4712,93.2994
3169.4353,93.3282
3170.3997,93.2807
3171.3638,93.2279
3172.3281,93.1644
3173.2922,93.0883
3174.2566,93.0034
3175.2207,92.9175
3176.1851,92.8391
3177.1492,92.7732
3178.1135,92.7183
3179.0776,92.668
3180.0420,92.6146
3181.0061,92.554
3181.9705,92.4881
3182.9346,92.4232
3183.8989,92.3661
3184.8630,92.3196
3185.8274,92.2804
3186.7915,92.2408
3187.7559,92.1931
3188.7200,92.1333
3189.6843,92.0626
3190.6484,91.9855
3191.6128,91.9067
3192.5769,91.829
3193.5413,91.7529
3194.5054,91.6782
3195.4697,91.6054
3196.4338,91.5368
3197.3982,91.4747
3198.3623,91.4207
3199.3267,91.3743
3200.2908,91.3328
3201.2551,91.2927
3202.2192,91.2504
3203.1836,91.2031
3204.1477,91.1495
3205.1121,91.0905
3206.0762,91.0287
3207.0405,90.9679
3208.0046,90.9102
3208.9690,90.8552
3209.9331,90.8005
3210.8975,90.7431
3211.8616,90.6828
3212.8259,90.623
3213.7900,90.5688
3214.7544,90.5239
3215.7185,90.4879
3216.6829,90.4564
3217.6470,90.4226
3218.6113,90.3812
3219.5754,90.3299
3220.5398,90.2699
3221.5039,90.2043
3222.4683,90.1369
3223.4324,90.0718
3224.3967,90.0131
3225.3608,89.965
3226.3252,89.93
3227.2893,89.9076
3228.2537,89.8934
3229.2178,89.8792
3230.1821,89.8566
3231.1462,89.8196
3232.1106,89.7674
3233.0747,89.7044
3234.0391,89.6386
3235.0032,89.578
3235.9675,89.5276
3236.9316,89.4879
3237.8960,89.455
3238.8601,89.4228
3239.8245,89.386
3240.7886,89.3429
3241.7529,89.2954
3242.7170,89.2485
3243.6814,89.2073
3244.6455,89.1743
3245.6099,89.1481
3246.5740,89.1235
3247.5383,89.0948
3248.5024,89.0584
3249.4668,89.0142
3250.4309,88.9652
3251.3953,88.9153
3252.3594,88.8676
3253.3237,88.8234
3254.2878,88.7822
3255.2522,88.7434
3256.2163,88.707
3257.1807,88.6739
3258.1448,88.6443
3259.1091,88.6167
3260.0732,88.5879
3261.0376,88.5551
3262.0017,88.5171
3262.9661,88.4758
3263.9302,88.4344
3264.8945,88.3956
3265.8586,88.3592
3266.8230,88.3221
3267.7871,88.28
3268.7515,88.231
3269.7156,88.1772
3270.6799,88.1241
3271.6440,88.0781
3272.6084,88.0433
3273.5725,88.0193
3274.5369,88.0019
3275.5010,87.9853
3276.4653,87.9657
3277.4294,87.9419
3278.3938,87.9153
3279.3579,87.8872
3280.3223,87.8582
3281.2864,87.8273
3282.2507,87.7937
3283.2148,87.7576
3284.1792,87.7209
3285.1433,87.6862
3286.1077,87.6557
3287.0718,87.6297
3288.0361,87.6066
3289.0002,87.5841
3289.9646,87.5599
3290.9287,87.533
3291.8931,87.5039
3292.8572,87.474
3293.8215,87.4448
3294.7856,87.4166
3295.7500,87.3892
3296.7141,87.3619
3297.6785,87.3342
3298.6426,87.3075
3299.6069,87.2836
3300.5710,87.2642
3301.5354,87.2484
3302.4995,87.2321
3303.4639,87.2096
3304.4280,87.1767
3305.3923,87.1336
3306.3564,87.086
3307.3208,87.042
3308.2849,87.0082
3309.2493,86.9853
3310.2134,86.9681
3311.1777,86.9491
3312.1418,86.9228
3313.1062,86.8886
3314.0703,86.85
3315.0347,86.812
3315.9988,86.7773
3316.9631,86.7463
3317.9272,86.718
3318.8916,86.6921
3319.8557,86.6693
3320.8201,86.6498
3321.7842,86.6314
3322.7485,86.6098
3323.7126,86.5808
3324.6770,86.544
3325.6411,86.504
3326.6055,86.4688
3327.5696,86.4449
3328.5339,86.433
3329.4980,86.4275
3330.4624,86.4202
3331.4265,86.4048
3332.3909,86.3804
3333.3550,86.3511
3334.3193,86.3232
3335.2834,86.3014
3336.2478,86.2865
3337.2119,86.2761
3338.1763,86.2672
3339.1404,86.2577
3340.1047,86.2464
3341.0688,86.2329
3342.0332,86.2165
3342.9973,86.197
3343.9617,86.176
3344.9258,86.157
3345.8901,86.144
3346.8542,86.1388
3347.8186,86.1393
3348.7827,86.1393
3349.7471,86.1315
3350.7112,86.1106
3351.6755,86.0766
3352.6396,86.0345
3353.6040,85.9931
3354.5681,85.9606
3355.5325,85.9426
3356.4966,85.9395
3357.4609,85.9466
3358.4250,85.9561
3359.3894,85.9593
3360.3535,85.9498
3361.3179,85.9252
3362.2820,85.889
3363.2463,85.8492
3364.2104,85.8159
3365.1748,85.7975
3366.1389,85.7973
3367.1033,85.8117
3368.0674,85.832
3369.0317,85.8488
3369.9958,85.8559
3370.9602,85.8526
3371.9243,85.8432
3372.8887,85.8331
3373.8528,85.8263
3374.8171,85.8232
3375.7813,85.8215
3376.7456,85.8187
3377.7097,85.8141
3378.6741,85.8093
3379.6382,85.8061
3380.6025,85.8049
3381.5667,85.8043
3382.5310,85.802
3383.4951,85.7971
3384.4595,85.7913
3385.4236,85.7881
3386.3879,85.7913
3387.3521,85.8025
3388.3164,85.8208
3389.2805,85.8432
3390.2449,85.8658
3391.2090,85.8857
3392.1733,85.9018
3393.1375,85.9153
3394.1018,85.9294
3395.0659,85.9471
3396.0303,85.9697
3396.9944,85.9951
3397.9587,86.0186
3398.9229,86.0352
3399.8872,86.0429
3400.8513,86.0442
3401.8157,86.0451
3402.7798,86.0518
3403.7441,86.0676
3404.7083,86.092
3405.6726,86.1216
3406.6367,86.152
3407.6011,86.1798
3408.5652,86.2031
3409.5295,86.2216
3410.4937,86.2358
3411.4580,86.2469
3412.4221,86.2558
3413.3865,86.2628
3414.3506,86.2672
3415.3149,86.2682
3416.2791,86.2656
3417.2434,86.2627
3418.2075,86.266
3419.1719,86.2836
3420.1360,86.3205
3421.1003,86.3741
3422.0645,86.4343
3423.0288,86.4882
3423.9929,86.5269
3424.9573,86.5491
3425.9214,86.561
3426.8857,86.573
3427.8499,86.594
3428.8142,86.6286
3429.7783,86.6753
3430.7427,86.7295
3431.7068,86.7862
3432.6711,86.8423
3433.6353,86.8956
3434.5996,86.9438
3435.5637,86.9833
3436.5281,87.0107
3437.4922,87.0249
3438.4565,87.0288
3439.4207,87.0283
3440.3850,87.0298
3441.3491,87.0378
3442.3135,87.0536
3443.2776,87.0772
3444.2419,87.1092
3445.2061,87.1516
3446.1704,87.2066
3447.1345,87.2727
3448.0989,87.3438
3449.0630,87.4119
3450.0273,87.4713
3450.9915,87.5205
3451.9558,87.561
3452.9199,87.5944
3453.8843,87.6218
3454.8484,87.6438
3455.8127,87.6606
3456.7769,87.6726
3457.7412,87.6809
3458.7053,87.6872
3459.6697,87.6939
3460.6338,87.7038
3461.5981,87.7189
3462.5623,87.7397
3463.5266,87.7654
3464.4907,87.795
3465.4551,87.8284
3466.4192,87.8664
3467.3835,87.9081
3468.3477,87.9497
3469.3120,87.9849
3470.2761,88.0084
3471.2405,88.0207
3472.2046,88.0287
3473.1689,88.0434
3474.1331,88.0726
3475.0974,88.115
3476.0615,88.1605
3477.0259,88.1966
3477.9900,88.2163
3478.9543,88.2223
3479.9185,88.2255
3480.8828,88.2382
3481.8469,88.2667
3482.8113,88.3086
3483.7754,88.3579
3484.7397,88.412
3485.7039,88.4734
3486.6682,88.5473
3487.6323,88.6353
3488.5967,88.732
3489.5608,88.8257
3490.5251,88.9051
3491.4893,88.9656
3492.4536,89.0116
3493.4177,89.0536
3494.3821,89.1017
3495.3462,89.1586
3496.3105,89.216
3497.2747,89.2595
3498.2390,89.2794
3499.2031,89.2779
3500.1675,89.2721
3501.1316,89.2876
3502.0959,89.3451
3503.0601,89.4441
3504.0244,89.56
3504.9885,89.6623
3505.9529,89.7357
3506.9170,89.7866
3507.8813,89.8335
3508.8455,89.8949
3509.8098,89.978
3510.7739,90.0749
3511.7383,90.17
3512.7024,90.2519
3513.6667,90.3186
3514.6309,90.3737
3515.5952,90.4198
3516.5593,90.4564
3517.5237,90.4812
3518.4878,90.4942
3519.4521,90.4994
3520.4163,90.5038
3521.3806,90.5136
3522.3447,90.5325
3523.3091,90.5606
3524.2732,90.5984
3525.2375,90.6505
3526.2017,90.7269
3527.1660,90.8374
3528.1301,90.982
3529.0945,91.1463
3530.0586,91.3064
3531.0229,91.4434
3531.9871,91.5531
3532.9514,91.6454
3533.9155,91.7377
3534.8799,91.8454
3535.8440,91.9739
3536.8083,92.113
3537.7725,92.2417
3538.7368,92.3401
3539.7009,92.4006
3540.6653,92.4305
3541.6294,92.4485
3542.5938,92.4803
3543.5579,92.5542
3544.5222,92.6886
3545.4863,92.8746
3546.4507,93.0744
3547.4148,93.2475
3548.3792,93.3801
3549.3433,93.4879
3550.3076,93.5988
3551.2717,93.7329
3552.2361,93.8912
3553.2002,94.055
3554.1646,94.1997
3555.1287,94.3129
3556.0930,94.4001
3557.0571,94.474
3558.0215,94.5422
3558.9856,94.6012
3559.9500,94.6406
3560.9141,94.6521
3561.8784,94.6373
3562.8425,94.606
3563.8069,94.5749
3564.7710,94.5789
3565.7354,94.68
3566.6995,94.9188
3567.6638,95.2318
3568.6279,95.4905
3569.5923,95.6316
3570.5564,95.6861
3571.5208,95.7147
3572.4849,95.755
3573.4492,95.8134
3574.4133,95.88
3575.3777,95.9446
3576.3418,96.0055
3577.3062,96.0661
3578.2703,96.1283
3579.2346,96.1878
3580.1987,96.2372
3581.1631,96.2744
3582.1272,96.3069
3583.0916,96.3452
3584.0557,96.3953
3585.0200,96.4616
3585.9841,96.5609
3586.9485,96.7071
3587.9126,96.8615
3588.8770,96.947
3589.8411,96.9317
3590.8054,96.8519
3591.7695,96.7637
3592.7339,96.7041
3593.6980,96.6855
3594.6624,96.7018
3595.6265,96.7347
3596.5908,96.7679
3597.5549,96.8031
3598.5193,96.8582
3599.4834,96.9485
3600.4478,97.0683
3601.4119,97.1915
3602.3762,97.2937
3603.3403,97.3716
3604.3047,97.439
3605.2688,97.5112
3606.2332,97.5975
3607.1973,97.6987
3608.1616,97.801
3609.1257,97.8747
3610.0901,97.893
3611.0542,97.8535
3612.0186,97.779
3612.9829,97.7026
3613.9470,97.6506
3614.9114,97.6352
3615.8755,97.6563
3616.8398,97.7098
3617.8040,97.7934
3618.7683,97.8977
3619.7324,97.9832
3620.6968,97.9922
3621.6609,97.9114
3622.6252,97.7986
3623.5894,97.7386
3624.5537,97.7827
3625.5178,97.9194
3626.4822,98.0901
3627.4463,98.25
3628.4106,98.3966
3629.3748,98.4974
3630.3391,98.4851
3631.3032,98.3717
3632.2676,98.2463
3633.2317,98.1832
3634.1960,98.1965
3635.1602,98.2541
3636.1245,98.3119
3637.0886,98.3433
3638.0530,98.3452
3639.0171,98.3251
3639.9814,98.2885
3640.9456,98.2382
3641.9099,98.1829
3642.8740,98.142
3643.8384,98.1323
3644.8025,98.1419
3645.7668,98.1135
3646.7310,97.9889
3647.6953,97.8451
3648.6594,97.9142
3649.6238,98.2116
3650.5879,98.445
3651.5522,98.4681
3652.5164,98.3717
3653.4807,98.2783
3654.4448,98.2379
3655.4092,98.2356
3656.3733,98.2321
3657.3376,98.1965
3658.3018,98.1275
3659.2661,98.0533
3660.2302,98.0052
3661.1946,97.9911
3662.1587,97.9952
3663.1230,98.002
3664.0872,98.0169
3665.0515,98.058
3666.0156,98.1286
3666.9800,98.1975
3667.9441,98.2211
3668.9084,98.1932
3669.8726,98.1487
3670.8369,98.1124
3671.8010,98.0842
3672.7654,98.0568
3673.7295,98.0271
3674.6938,98.0248
3675.6580,98.0996
3676.6223,98.2285
3677.5864,98.3243
3678.5508,98.3536
3679.5149,98.3473
3680.4792,98.3338
3681.4434,98.3158
3682.4077,98.292
3683.3718,98.2783
3684.3362,98.2985
3685.3003,98.3526
3686.2646,98.396
3687.2288,98.3681
3688.1931,98.2757
3689.1572,98.2177
3690.1216,98.2571
3691.0857,98.3454
3692.0500,98.4242
3693.0142,98.4872
3693.9785,98.551
3694.9426,98.6269
3695.9070,98.7197
3696.8711,98.8327
3697.8354,98.9678
3698.7996,99.1199
3699.7639,99.2755
3700.7280,99.4168
3701.6924,99.5247
3702.6565,99.5824
3703.6208,99.5883
3704.5850,99.5653
3705.5493,99.5468
3706.5134,99.5512
3707.4778,99.57
3708.4419,99.5903
3709.4063,99.6455
3710.3704,99.819
3711.3347,100.12
3712.2988,100.403
3713.2632,100.527
3714.2273,100.488
3715.1917,100.37
3716.1558,100.247
3717.1201,100.147
3718.0842,100.061
3719.0486,99.9672
3720.0127,99.8578
3720.9771,99.7436
3721.9412,99.6477
3722.9055,99.5911
3723.8696,99.5818
3724.8340,99.609
3725.7981,99.6466
3726.7625,99.6726
3727.7266,99.685
3728.6909,99.6955
3729.6550,99.7062
3730.6194,99.6934
3731.5835,99.6179
3732.5479,99.4717
3733.5120,99.3455
3734.4763,99.3624
3735.4404,99.5425
3736.4048,99.7282
3737.3689,99.7932
3738.3333,99.7825
3739.2974,99.831
3740.2617,100.039
3741.2258,100.403
3742.1902,100.807
3743.1543,101.071
3744.1187,101.07
3745.0828,100.821
3746.0471,100.455
3747.0112,100.123
3747.9756,99.917
3748.9397,99.8734
3749.9041,100.004
3750.8682,100.259
3751.8325,100.467
3752.7966,100.478
3753.7610,100.329
3754.7251,100.148
3755.6895,100.029
3756.6536,99.9993
3757.6179,100.043
3758.5820,100.13
3759.5464,100.217
3760.5105,100.271
3761.4749,100.285
3762.4390,100.277
3763.4033,100.265
3764.3674,100.257
3765.3318,100.249
3766.2959,100.24
3767.2603,100.233
3768.2244,100.236
3769.1887,100.255
3770.1528,100.283
3771.1172,100.3
3772.0813,100.286
3773.0457,100.25
3774.0098,100.21
3774.9741,100.187
3775.9382,100.177
3776.9026,100.172
3777.8667,100.165
3778.8311,100.156
3779.7952,100.138
3780.7595,100.098
3781.7236,100.037
3782.6880,99.9758
3783.6521,99.9413
3784.6165,99.9564
3785.5806,100.025
3786.5449,100.129
3787.5090,100.237
3788.4734,100.326
3789.4375,100.388
3790.4019,100.428
3791.3660,100.45
3792.3303,100.446
3793.2944,100.401
3794.2588,100.307
3795.2229,100.182
3796.1873,100.068
3797.1514,100.007
3798.1157,100.009
3799.0798,100.051
3800.0442,100.101
3801.0083,100.141
3801.9727,100.165
3802.9368,100.183
3803.9011,100.222
3804.8652,100.309
3805.8296,100.437
3806.7937,100.554
3807.7581,100.591
3808.7222,100.52
3809.6865,100.388
3810.6506,100.285
3811.6150,100.267
3812.5791,100.317
3813.5435,100.354
3814.5076,100.299
3815.4719,100.136
3816.4360,99.9188
3817.4004,99.721
3818.3645,99.5957
3819.3289,99.5686
3820.2930,99.6323
3821.2573,99.7286
3822.2214,99.772
3823.1858,99.7263
3824.1499,99.6327
3825.1143,99.5609
3826.0784,99.5551
3827.0427,99.6157
3828.0068,99.711
3828.9712,99.8
3829.9353,99.8546
3830.8997,99.87
3831.8638,99.861
3832.8281,99.847
3833.7922,99.8362
3834.7566,99.8174
3835.7207,99.7697
3836.6851,99.6903
3837.6492,99.6133
3838.6135,99.5873
3839.5776,99.6322
3840.5420,99.7335
3841.5061,99.8666
3842.4705,100.003
3843.4346,100.105
3844.3989,100.132
3845.3630,100.074
3846.3274,99.9681
3847.2915,99.8914
3848.2559,99.9229
3849.2200,100.1
3850.1843,100.388
3851.1484,100.693
3852.1128,100.94
3853.0769,101.117
3854.0413,101.143
3855.0054,100.911
3855.9697,100.506
3856.9338,100.12
3857.8982,99.8784
3858.8623,99.7973
3859.8267,99.8146
3860.7908,99.839
3861.7551,99.8094
3862.7192,99.7356
3863.6836,99.6754
3864.6477,99.6708
3865.6121,99.7174
3866.5762,99.7821
3867.5405,99.8248
3868.5046,99.8181
3869.4690,99.7673
3870.4331,99.7118
3871.3975,99.6918
3872.3616,99.7151
3873.3259,99.7625
3874.2900,99.8163
3875.2544,99.8715
3876.2185,99.9268
3877.1829,99.9711
3878.1470,99.9851
3879.1113,99.9582
3880.0754,99.9065
3881.0398,99.8685
3882.0039,99.8807
3882.9683,99.9561
3883.9324,100.077
3884.8967,100.202
3885.8608,100.282
3886.8252,100.295
3887.7893,100.251
3888.7537,100.183
3889.7178,100.116
3890.6821,100.065
3891.6462,100.035
3892.6106,100.016
3893.5747,99.9938
3894.5391,99.9762
3895.5032,99.9817
3896.4675,100.012
3897.4316,100.045
3898.3960,100.052
3899.3601,100.031
3900.3245,99.9967
3901.2886,99.9692
3902.2529,99.9614
3903.2170,99.9779
3904.1814,100.008
3905.1455,100.028
3906.1099,100.026
3907.0740,100.009
3908.0383,99.9947
3909.0024,99.9904
3909.9668,99.9923
3910.9309,99.9918
3911.8953,99.9833
3912.8594,99.967
3913.8237,99.9455
3914.7878,99.9226
3915.7522,99.9044
3916.7163,99.8974
3917.6807,99.8992
3918.6448,99.8938
3919.6091,99.8652
3920.5732,99.8134
3921.5376,99.7542
3922.5017,99.7076
3923.4661,99.6866
3924.4302,99.6897
3925.3945,99.7006
3926.3586,99.7013
3927.3230,99.6868
3928.2871,99.6666
3929.2515,99.6578
3930.2156,99.679
3931.1799,99.7414
3932.1440,99.8364
3933.1084,99.9357
3934.0725,100.01
3935.0369,100.048
3936.0010,100.054
3936.9653,100.038
3937.9294,100.005
3938.8938,99.9584
3939.8579,99.9043
3940.8223,99.8535
3941.7864,99.82
3942.7507,99.8106
3943.7148,99.8182
3944.6792,99.8273
3945.6433,99.8247
3946.6077,99.8055
3947.5718,99.7755
3948.5361,99.7479
3949.5002,99.7357
3950.4646,99.7427
3951.4287,99.7628
3952.3931,99.7864
3953.3572,99.8057
3954.3215,99.8161
3955.2856,99.816
3956.2500,99.8071
3957.2141,99.7935
3958.1785,99.7806
3959.1426,99.7738
3960.1069,99.7774
3961.0710,99.7929
3962.0354,99.8177
3962.9995,99.8451
3963.9639,99.8675
3964.9280,99.879
3965.8923,99.8775
3966.8564,99.8644
3967.8208,99.8437
3968.7849,99.8204
3969.7493,99.7995
3970.7134,99.7856
3971.6777,99.7824
3972.6418,99.7921
3973.6062,99.8139
3974.5703,99.844
3975.5347,99.8756
3976.4988,99.9019
3977.4631,99.9186
3978.4272,99.925
3979.3916,99.924
3980.3557,99.9192
3981.3201,99.9138
3982.2842,99.9086
3983.2485,99.9026
3984.2126,99.8943
3985.1770,99.8831
3986.1411,99.8698
3987.1055,99.856
3988.0696,99.8424
3989.0339,99.8276
3989.9980,99.81
3990.9624,99.7896
3991.9265,99.7702
3992.8909,99.7581
3993.8550,99.7581
3994.8193,99.7695
3995.7834,99.7845
3996.7478,99.7928
3997.7119,99.7879
3998.6763,99.7721
3999.6404,99.7555
4000.6047,99.5521

##### Extended Information
[Comments]
Sample name
Comment
User
Division
Company,HANKYONG

[Detailed Information]
Creation date,4/24/2024 12:19 PM

Data array type,Linear data array
Horizontal axis,Wavenumber [cm-1]
Vertical axis,%T
Start,649.893 cm-1
End,4000.6 cm-1
Data interval,0.964233 cm-1
Data points,3476    

[Measurement Information]
Model Name,FT/IR-4700typeA
Serial Number,D056761788

Accessory,ATR PRO ONE
Accessory S/N,C174761809
Incident angle,45 deg

Measurement Date,4/24/2024 12:19 PM

Light Source,Standard
Detector,TGS
Accumulation,32
Resolution,4 cm-1
Zero Filling,On
Apodization,Cosine
Gain,Auto (4)
Aperture,Auto (7.1 mm)
Scanning Speed,Auto (2 mm/sec)
Filter,Auto (30000 Hz)

