TITLE,
DATA TYPE,INFRARED SPECTRUM
ORIGIN,JASCO
OWNER,
DATE,24/04/24
TIME,14:33:30
SPECTROMETER/DATA SYSTEM,
LOCALE,1033
RESOLUTION,
DELTAX,0.964233
XUNITS,1/CM
YUNITS,TRANSMITTANCE
FIRSTX,  649.8934
LASTX, 4000.6047
NPOINTS,    3476
FIRSTY,    98.97701
MAXY,   102.14708
MINY,    80.02615
XYDATA
649.8934,98.977
650.8576,99.1507
651.8218,99.3041
652.7861,99.4056
653.7503,99.4361
654.7145,99.4054
655.6788,99.3465
656.6430,99.2962
657.6072,99.2758
658.5715,99.2838
659.5357,99.3045
660.4999,99.3261
661.4642,99.3546
662.4284,99.4124
663.3926,99.527
664.3569,99.7216
665.3211,100.01
666.2853,100.378
667.2496,100.739
668.2138,100.907
669.1780,100.775
670.1423,100.489
671.1065,100.248
672.0707,100.123
673.0350,100.103
673.9992,100.156
674.9634,100.249
675.9277,100.357
676.8919,100.458
677.8561,100.542
678.8204,100.603
679.7846,100.636
680.7488,100.642
681.7131,100.625
682.6773,100.593
683.6415,100.554
684.6058,100.515
685.5700,100.48
686.5342,100.451
687.4985,100.424
688.4627,100.394
689.4269,100.352
690.3912,100.293
691.3554,100.225
692.3196,100.165
693.2839,100.134
694.2481,100.137
695.2123,100.147
696.1766,100.129
697.1408,100.066
698.1050,99.9683
699.0693,99.8659
700.0335,99.7874
700.9977,99.7452
701.9620,99.731
702.9262,99.7239
703.8904,99.7061
704.8547,99.6728
705.8189,99.6326
706.7831,99.5984
707.7474,99.5783
708.7116,99.6062
709.6758,99.6672
710.6401,99.729
711.6043,99.7869
712.5685,99.8391
713.5328,99.8855
714.4970,99.9267
715.4612,100.001
716.4255,100.029
717.3897,100.05
718.3539,100.056
719.3182,100.042
720.2824,100.004
721.2466,99.9475
722.2109,99.883
723.1751,99.8232
724.1393,99.7754
725.1036,99.7399
726.0678,99.7116
727.0320,99.6833
727.9963,99.6502
728.9605,99.6125
729.9247,99.5754
730.8890,99.5472
731.8532,99.5343
732.8174,99.5364
733.7817,99.5443
734.7459,99.5412
735.7101,99.5089
736.6744,99.4368
737.6386,99.3279
738.6028,99.199
739.5671,99.0736
740.5313,98.9713
741.4955,98.9003
742.4598,98.8551
743.4240,98.8217
744.3882,98.7859
745.3525,98.7391
746.3167,98.6811
747.2809,98.6176
748.2452,98.5578
749.2094,98.5099
750.1736,98.4778
751.1379,98.4584
752.1021,98.441
753.0663,98.4103
754.0306,98.3544
754.9948,98.2717
755.9590,98.174
756.9233,98.082
757.8875,98.0139
758.8517,97.9755
759.8160,97.9576
760.7802,97.9417
761.7444,97.9131
762.7087,97.8687
763.6729,97.8186
764.6371,97.7775
765.6014,97.7552
766.5656,97.7509
767.5298,97.7552
768.4941,97.758
769.4583,97.7542
770.4225,97.7457
771.3868,97.7377
772.3510,97.7343
773.3152,97.7355
774.2795,97.7384
775.2437,97.7392
776.2079,97.7349
777.1722,97.7237
778.1364,97.704
779.1006,97.6743
780.0649,97.6347
781.0291,97.5874
781.9933,97.5373
782.9576,97.4891
783.9218,97.4451
784.8860,97.4024
785.8503,97.3531
786.8145,97.2878
787.7787,97.1995
788.7430,97.0879
789.7072,96.9598
790.6714,96.8274
791.6357,96.7036
792.5999,96.5981
793.5641,96.5149
794.5284,96.4525
795.4926,96.4057
796.4568,96.3673
797.4211,96.3291
798.3853,96.2825
799.3495,96.2203
800.3138,96.1378
801.2780,96.0357
802.2422,95.9195
803.2065,95.7986
804.1707,95.6833
805.1349,95.5814
806.0992,95.4968
807.0634,95.429
808.0276,95.3737
808.9919,95.325
809.9561,95.2778
810.9203,95.2292
811.8846,95.1799
812.8488,95.1342
813.8130,95.0982
814.7773,95.0777
815.7415,95.0767
816.7057,95.0965
817.6700,95.1366
818.6342,95.1972
819.5984,95.2805
820.5627,95.391
821.5269,95.5343
822.4911,95.7133
823.4554,95.9253
824.4196,96.1606
825.3839,96.4037
826.3481,96.6376
827.3123,96.8492
828.2766,97.0328
829.2408,97.19
830.2050,97.3277
831.1693,97.4528
832.1335,97.5694
833.0977,97.6766
834.0620,97.769
835.0262,97.8394
835.9904,97.8804
836.9547,97.8869
837.9189,97.8564
838.8831,97.7889
839.8474,97.6863
840.8116,97.552
841.7758,97.391
842.7401,97.2101
843.7043,97.0181
844.6685,96.8239
845.6328,96.6341
846.5970,96.4509
847.5612,96.2733
848.5255,96.1002
849.4897,95.9351
850.4539,95.7874
851.4182,95.67
852.3824,95.5935
853.3466,95.5605
854.3109,95.5648
855.2751,95.5952
856.2393,95.6421
857.2036,95.7018
858.1678,95.777
859.1320,95.8721
860.0963,95.989
861.0605,96.1237
862.0247,96.2675
862.9890,96.4104
863.9532,96.5449
864.9174,96.6685
865.8817,96.783
866.8459,96.8924
867.8101,96.9995
868.7744,97.1035
869.7386,97.2002
870.7028,97.2842
871.6671,97.3538
872.6313,97.4131
873.5955,97.4724
874.5598,97.5438
875.5240,97.6351
876.4882,97.746
877.4525,97.8688
878.4167,97.9928
879.3809,98.1107
880.3452,98.2217
881.3094,98.3307
882.2736,98.4437
883.2379,98.5645
884.2021,98.6931
885.1663,98.8279
886.1306,98.9681
887.0948,99.1151
888.0590,99.2694
889.0233,99.4277
889.9875,99.5811
890.9517,99.7165
891.9160,99.8232
892.8802,99.8983
893.8444,99.9495
894.8087,99.9915
895.7729,100.039
896.7371,100.098
897.7014,100.166
898.6656,100.243
899.6298,100.315
900.5941,100.366
901.5583,100.397
902.5225,100.413
903.4868,100.418
904.4510,100.416
905.4152,100.408
906.3795,100.394
907.3437,100.376
908.3079,100.355
909.2722,100.334
910.2364,100.313
911.2006,100.292
912.1649,100.271
913.1291,100.25
914.0933,100.232
915.0576,100.215
916.0218,100.198
916.9860,100.178
917.9503,100.154
918.9145,100.129
919.8787,100.108
920.8430,100.099
921.8072,100.104
922.7714,100.122
923.7357,100.15
924.6999,100.181
925.6641,100.213
926.6284,100.244
927.5926,100.276
928.5568,100.311
929.5211,100.35
930.4853,100.392
931.4495,100.435
932.4138,100.473
933.3780,100.503
934.3422,100.52
935.3065,100.525
936.2707,100.524
937.2349,100.521
938.1992,100.523
939.1634,100.531
940.1276,100.544
941.0919,100.559
942.0561,100.574
943.0203,100.59
943.9846,100.606
944.9488,100.618
945.9130,100.622
946.8773,100.615
947.8415,100.598
948.8057,100.566
949.7700,100.527
950.7342,100.488
951.6984,100.454
952.6627,100.42
953.6269,100.379
954.5911,100.324
955.5554,100.253
956.5196,100.169
957.4838,100.079
958.4481,99.9893
959.4123,99.9007
960.3765,99.8099
961.3408,99.7121
962.3050,99.6051
963.2692,99.4927
964.2335,99.383
965.1977,99.2865
966.1619,99.2111
967.1262,99.1602
968.0904,99.1314
969.0546,99.1181
970.0189,99.1116
970.9831,99.1035
971.9473,99.0876
972.9116,99.0602
973.8758,99.0207
974.8400,98.9699
975.8043,98.9092
976.7685,98.839
977.7327,98.7577
978.6970,98.6621
979.6612,98.5494
980.6254,98.4185
981.5897,98.2722
982.5539,98.1164
983.5181,97.9585
984.4824,97.8042
985.4466,97.654
986.4108,97.5026
987.3751,97.3407
988.3393,97.1587
989.3035,96.9515
990.2678,96.7193
991.2320,96.4663
992.1962,96.1968
993.1605,95.9121
994.1247,95.6104
995.0889,95.2891
996.0532,94.9481
997.0174,94.591
997.9816,94.224
998.9459,93.8521
999.9101,93.4767
1000.8743,93.0947
1001.8386,92.7
1002.8028,92.2861
1003.7670,91.8486
1004.7313,91.3862
1005.6955,90.9003
1006.6597,90.3951
1007.6240,89.8754
1008.5882,89.346
1009.5524,88.8107
1010.5167,88.2714
1011.4809,87.7289
1012.4451,87.1837
1013.4094,86.6365
1014.3736,86.0885
1015.3378,85.5415
1016.3021,84.9979
1017.2663,84.4607
1018.2305,83.934
1019.1948,83.423
1020.1590,82.9332
1021.1232,82.4696
1022.0875,82.0364
1023.0517,81.6365
1024.0160,81.2717
1024.9802,80.9434
1025.9445,80.6535
1026.9087,80.4057
1027.8729,80.208
1028.8372,80.0748
1029.8014,80.0261
1030.7656,80.0852
1031.7299,80.2727
1032.6941,80.6022
1033.6583,81.0754
1034.6226,81.6816
1035.5868,82.3988
1036.5510,83.1975
1037.5153,84.0437
1038.4795,84.9029
1039.4437,85.7431
1040.4080,86.5376
1041.3722,87.267
1042.3364,87.9198
1043.3007,88.491
1044.2649,88.9801
1045.2291,89.39
1046.1934,89.7261
1047.1576,89.9964
1048.1218,90.2114
1049.0861,90.383
1050.0503,90.5225
1051.0145,90.6405
1051.9788,90.7457
1052.9430,90.8458
1053.9072,90.9476
1054.8715,91.0554
1055.8357,91.1713
1056.7999,91.2955
1057.7642,91.4288
1058.7284,91.5758
1059.6926,91.7457
1060.6569,91.9503
1061.6211,92.1973
1062.5853,92.4842
1063.5496,92.7947
1064.5138,93.1011
1065.4780,93.3733
1066.4423,93.5898
1067.4065,93.7457
1068.3707,93.8513
1069.3350,93.924
1070.2992,93.9795
1071.2634,94.0266
1072.2277,94.0677
1073.1919,94.1011
1074.1561,94.1242
1075.1204,94.1351
1076.0846,94.1336
1077.0488,94.1208
1078.0131,94.0992
1078.9773,94.0714
1079.9415,94.0394
1080.9058,94.0041
1081.8700,93.9657
1082.8342,93.9253
1083.7985,93.8858
1084.7627,93.8513
1085.7269,93.8248
1086.6912,93.8065
1087.6554,93.7932
1088.6196,93.7804
1089.5839,93.7654
1090.5481,93.7497
1091.5123,93.739
1092.4766,93.74
1093.4408,93.7565
1094.4050,93.7874
1095.3693,93.8258
1096.3335,93.8625
1097.2977,93.889
1098.2620,93.8994
1099.2262,93.8914
1100.1904,93.8646
1101.1547,93.8196
1102.1189,93.7578
1103.0831,93.6813
1104.0474,93.5934
1105.0116,93.4974
1105.9758,93.3953
1106.9401,93.2873
1107.9043,93.1723
1108.8685,93.05
1109.8328,92.9221
1110.7970,92.7919
1111.7612,92.6633
1112.7255,92.5378
1113.6897,92.414
1114.6539,92.2885
1115.6182,92.1579
1116.5824,92.0218
1117.5466,91.8833
1118.5109,91.7503
1119.4751,91.6337
1120.4393,91.5468
1121.4036,91.5033
1122.3678,91.5154
1123.3320,91.5908
1124.2963,91.7321
1125.2605,91.9349
1126.2247,92.19
1127.1890,92.4839
1128.1532,92.8022
1129.1174,93.1305
1130.0817,93.4555
1131.0459,93.7652
1132.0101,94.0491
1132.9744,94.2979
1133.9386,94.5045
1134.9028,94.6648
1135.8671,94.7786
1136.8313,94.8501
1137.7955,94.8874
1138.7598,94.902
1139.7240,94.906
1140.6882,94.9106
1141.6525,94.9233
1142.6167,94.9468
1143.5809,94.9792
1144.5452,95.016
1145.5094,95.0524
1146.4736,95.0859
1147.4379,95.117
1148.4021,95.1492
1149.3663,95.1885
1150.3306,95.2425
1151.2948,95.3203
1152.2590,95.4301
1153.2233,95.5782
1154.1875,95.766
1155.1517,95.9896
1156.1160,96.2409
1157.0802,96.5104
1158.0444,96.7904
1159.0087,97.077
1159.9729,97.3696
1160.9371,97.669
1161.9014,97.975
1162.8656,98.2844
1163.8298,98.5903
1164.7941,98.883
1165.7583,99.1522
1166.7225,99.3892
1167.6868,99.5887
1168.6510,99.7489
1169.6152,99.8712
1170.5795,99.9582
1171.5437,100.012
1172.5079,100.037
1173.4722,100.034
1174.4364,100.008
1175.4006,99.9598
1176.3649,99.8888
1177.3291,99.7909
1178.2933,99.5888
1179.2576,99.3545
1180.2218,99.0884
1181.1860,98.794
1182.1503,98.4757
1183.1145,98.138
1184.0787,97.7844
1185.0430,97.4187
1186.0072,97.0458
1186.9714,96.6717
1187.9357,96.3007
1188.8999,95.9341
1189.8641,95.5692
1190.8284,95.2007
1191.7926,94.8224
1192.7568,94.4302
1193.7211,94.0225
1194.6853,93.601
1195.6495,93.1701
1196.6138,92.7369
1197.5780,92.3092
1198.5422,91.8941
1199.5065,91.4517
1200.4707,91.079
1201.4349,90.7266
1202.3992,90.3952
1203.3634,90.0882
1204.3276,89.8108
1205.2919,89.5686
1206.2561,89.3643
1207.2203,89.1973
1208.1846,89.0632
1209.1488,88.9568
1210.1130,88.874
1211.0773,88.8126
1212.0415,88.7727
1213.0057,88.7549
1213.9700,88.7593
1214.9342,88.7845
1215.8984,88.8267
1216.8627,88.8811
1217.8269,88.9423
1218.7911,89.0077
1219.7554,89.0781
1220.7196,89.1571
1221.6838,89.249
1222.6481,89.3551
1223.6123,89.4716
1224.5765,89.59
1225.5408,89.7002
1226.5050,89.7948
1227.4692,89.8719
1228.4335,89.9356
1229.3977,89.9928
1230.3619,90.0509
1231.3262,90.1148
1232.2904,90.1867
1233.2546,90.2669
1234.2189,90.355
1235.1831,90.4502
1236.1473,90.5513
1237.1116,90.6559
1238.0758,90.7594
1239.0400,90.8551
1240.0043,90.9357
1240.9685,90.9938
1241.9327,91.0242
1242.8970,91.0242
1243.8612,90.9926
1244.8254,90.9285
1245.7897,90.8296
1246.7539,90.6923
1247.7181,90.5126
1248.6824,90.2883
1249.6466,90.0201
1250.6108,89.7119
1251.5751,89.3695
1252.5393,89.0004
1253.5035,88.6123
1254.4678,88.2132
1255.4320,87.8105
1256.3962,87.4108
1257.3605,87.0199
1258.3247,86.6433
1259.2889,86.2873
1260.2532,85.9592
1261.2174,85.6671
1262.1816,85.4184
1263.1459,85.2187
1264.1101,85.0716
1265.0743,84.9794
1266.0386,84.9437
1267.0028,84.9673
1267.9670,85.0533
1268.9313,85.2054
1269.8955,85.4254
1270.8597,85.7115
1271.8240,86.0571
1272.7882,86.4517
1273.7524,86.8833
1274.7167,87.3416
1275.6809,87.8192
1276.6451,88.3113
1277.6094,88.8147
1278.5736,89.3256
1279.5378,89.8388
1280.5021,90.3478
1281.4663,90.8463
1282.4305,91.3302
1283.3948,91.7984
1284.3590,92.2525
1285.3232,92.6944
1286.2875,93.1236
1287.2517,93.5358
1288.2159,93.924
1289.1802,94.2819
1290.1444,94.6069
1291.1086,94.9015
1292.0729,95.1709
1293.0371,95.4206
1294.0013,95.6539
1294.9656,95.8717
1295.9298,96.0736
1296.8940,96.2591
1297.8583,96.4284
1298.8225,96.5822
1299.7867,96.7213
1300.7510,96.8462
1301.7152,96.9587
1302.6794,97.061
1303.6437,97.1555
1304.6079,97.2442
1305.5721,97.327
1306.5364,97.4024
1307.5006,97.468
1308.4648,97.523
1309.4291,97.5687
1310.3933,97.6082
1311.3575,97.6448
1312.3218,97.6804
1313.2860,97.7143
1314.2502,97.7454
1315.2145,97.7733
1316.1787,97.8003
1317.1429,97.8306
1318.1072,97.8678
1319.0714,97.9127
1320.0356,97.9626
1320.9999,98.0128
1321.9641,98.0587
1322.9283,98.0972
1323.8926,98.1267
1324.8568,98.147
1325.8210,98.1591
1326.7853,98.166
1327.7495,98.1723
1328.7137,98.1835
1329.6780,98.2037
1330.6422,98.2327
1331.6064,98.2658
1332.5707,98.2949
1333.5349,98.3138
1334.4991,98.3221
1335.4634,98.3264
1336.4276,98.3387
1337.3918,98.3697
1338.3561,98.4207
1339.3203,98.4815
1340.2845,98.5387
1341.2488,98.5857
1342.2130,98.6228
1343.1772,98.6524
1344.1415,98.6744
1345.1057,98.687
1346.0699,98.6871
1347.0342,98.6725
1347.9984,98.643
1348.9626,98.6018
1349.9269,98.5532
1350.8911,98.5012
1351.8553,98.4492
1352.8196,98.4002
1353.7838,98.3571
1354.7480,98.3204
1355.7123,98.2867
1356.6765,98.2492
1357.6407,98.2012
1358.6050,98.141
1359.5692,98.075
1360.5334,98.0148
1361.4977,97.9696
1362.4619,97.9405
1363.4261,97.9229
1364.3904,97.9124
1365.3546,97.9067
1366.3188,97.9056
1367.2831,97.9101
1368.2473,97.9207
1369.2115,97.9376
1370.1758,97.9624
1371.1400,98.0027
1372.1042,98.0729
1373.0685,98.1864
1374.0327,98.3426
1374.9969,98.5221
1375.9612,98.6987
1376.9254,98.8572
1377.8896,98.9978
1378.8539,99.1279
1379.8181,99.2521
1380.7823,99.366
1381.7466,99.4591
1382.7108,99.5236
1383.6750,99.5564
1384.6393,99.5814
1385.6035,99.6233
1386.5677,99.6958
1387.5320,99.7911
1388.4962,99.8866
1389.4604,99.9621
1390.4247,100.007
1391.3889,100.022
1392.3531,100.014
1393.3174,99.9932
1394.2816,99.9638
1395.2458,99.9216
1396.2101,99.8629
1397.1743,99.7902
1398.1385,99.7099
1399.1028,99.6252
1400.0670,99.5337
1401.0313,99.4285
1401.9955,99.3016
1402.9597,99.1458
1403.9240,98.9568
1404.8882,98.7351
1405.8524,98.4877
1406.8167,98.2248
1407.7809,97.9504
1408.7451,97.6591
1409.7094,97.3416
1410.6736,96.9948
1411.6378,96.6279
1412.6021,96.2565
1413.5663,95.8903
1414.5305,95.5267
1415.4948,95.1573
1416.4590,94.7798
1417.4232,94.4057
1418.3875,94.0628
1419.3517,93.7872
1420.3159,93.598
1421.2802,93.481
1422.2444,93.4038
1423.2086,93.3391
1424.1729,93.2732
1425.1371,93.2039
1426.1013,93.1373
1427.0656,93.0864
1428.0298,93.0686
1428.9940,93.0971
1429.9583,93.1679
1430.9225,93.2569
1431.8867,93.3337
1432.8510,93.381
1433.8152,93.4028
1434.7794,93.4169
1435.7437,93.433
1436.7079,93.4338
1437.6721,93.391
1438.6364,93.2897
1439.6006,93.1222
1440.5648,92.8794
1441.5291,92.5573
1442.4933,92.1652
1443.4575,91.7226
1444.4218,91.2507
1445.3860,90.7648
1446.3502,90.278
1447.3145,89.8137
1448.2787,89.4096
1449.2429,89.1013
1450.2072,88.8953
1451.1714,88.7634
1452.1356,88.6646
1453.0999,88.5717
1454.0641,88.4885
1455.0283,88.4459
1455.9926,88.4599
1456.9568,88.4701
1457.9210,88.4134
1458.8853,88.3372
1459.8495,88.2914
1460.8137,88.2702
1461.7780,88.2741
1462.7422,88.3495
1463.7064,88.5738
1464.6707,88.9884
1465.6349,89.5337
1466.5991,90.0874
1467.5634,90.567
1468.5276,90.9679
1469.4918,91.3438
1470.4561,91.7823
1471.4203,92.3638
1472.3845,93.0752
1473.3488,93.7586
1474.3130,94.2534
1475.2772,94.5512
1476.2415,94.7224
1477.2057,94.8128
1478.1699,94.8329
1479.1342,94.7803
1480.0984,94.6535
1481.0626,94.4573
1482.0269,94.2026
1482.9911,93.9042
1483.9553,93.5762
1484.9196,93.2282
1485.8838,92.8629
1486.8480,92.4725
1487.8123,92.0364
1488.7765,91.541
1489.7407,91.0257
1490.7050,90.5659
1491.6692,90.1889
1492.6334,89.8588
1493.5977,89.525
1494.5619,89.1537
1495.5261,88.732
1496.4904,88.2641
1497.4546,87.7755
1498.4188,87.3118
1499.3831,86.905
1500.3473,86.5449
1501.3115,86.1955
1502.2758,85.8259
1503.2400,85.4213
1504.2042,84.9757
1505.1685,84.4609
1506.1327,83.7951
1507.0969,82.9704
1508.0612,82.2776
1509.0254,81.9504
1509.9896,81.8935
1510.9539,81.9563
1511.9181,82.0862
1512.8823,82.3226
1513.8466,82.7555
1514.8108,83.4635
1515.7750,84.4404
1516.7393,85.5771
1517.7035,86.7472
1518.6677,87.9265
1519.6320,89.2079
1520.5962,90.6706
1521.5604,92.226
1522.5247,93.6524
1523.4889,94.8011
1524.4531,95.6992
1525.4174,96.4609
1526.3816,97.1613
1527.3458,97.7915
1528.3101,98.3034
1529.2743,98.6751
1530.2385,98.938
1531.2028,99.1612
1532.1670,99.4064
1533.1312,99.6722
1534.0955,99.8898
1535.0597,99.9933
1536.0239,99.974
1536.9882,99.8776
1537.9524,99.7926
1538.9166,99.8351
1539.8809,100.061
1540.8451,100.317
1541.8093,100.398
1542.7736,100.352
1543.7378,100.292
1544.7020,100.247
1545.6663,100.203
1546.6305,100.146
1547.5947,100.071
1548.5590,100.013
1549.5232,99.9415
1550.4874,99.8576
1551.4517,99.7594
1552.4159,99.6436
1553.3801,99.5082
1554.3444,99.357
1555.3086,99.2096
1556.2728,99.1087
1557.2371,99.0892
1558.2013,99.0759
1559.1655,98.9382
1560.1298,98.7562
1561.0940,98.6458
1562.0582,98.583
1563.0225,98.5072
1563.9867,98.3874
1564.9509,98.2241
1565.9152,98.0329
1566.8794,97.8273
1567.8436,97.6049
1568.8079,97.3545
1569.7721,97.0811
1570.7363,96.81
1571.7006,96.5548
1572.6648,96.3022
1573.6290,96.0235
1574.5933,95.6896
1575.5575,95.2861
1576.5217,94.8438
1577.4860,94.4378
1578.4502,94.1097
1579.4144,93.8291
1580.3787,93.5438
1581.3429,93.2257
1582.3071,92.881
1583.2714,92.5361
1584.2356,92.2172
1585.1998,91.9345
1586.1641,91.6842
1587.1283,91.4611
1588.0925,91.2667
1589.0568,91.1062
1590.0210,90.9814
1590.9852,90.8877
1591.9495,90.8182
1592.9137,90.7682
1593.8779,90.7361
1594.8422,90.7201
1595.8064,90.7167
1596.7706,90.7227
1597.7349,90.7379
1598.6991,90.7658
1599.6633,90.8112
1600.6276,90.877
1601.5918,90.9631
1602.5560,91.0659
1603.5203,91.1805
1604.4845,91.3021
1605.4487,91.4293
1606.4130,91.5651
1607.3772,91.7163
1608.3414,91.8864
1609.3057,92.0676
1610.2699,92.241
1611.2341,92.387
1612.1984,92.5
1613.1626,92.599
1614.1268,92.7323
1615.0911,92.9586
1616.0553,93.2926
1617.0195,93.6632
1617.9838,93.9777
1618.9480,94.2082
1619.9122,94.384
1620.8765,94.5505
1621.8407,94.7447
1622.8049,94.9737
1623.7692,95.207
1624.7334,95.4057
1625.6976,95.5605
1626.6619,95.6914
1627.6261,95.8178
1628.5903,95.938
1629.5546,96.0321
1630.5188,96.0801
1631.4830,96.0777
1632.4473,96.0447
1633.4115,96.0248
1634.3757,96.0665
1635.3400,96.1722
1636.3042,96.2767
1637.2684,96.3325
1638.2327,96.3534
1639.1969,96.3558
1640.1611,96.3372
1641.1254,96.2894
1642.0896,96.2113
1643.0538,96.1139
1644.0181,96.0205
1644.9823,95.9541
1645.9465,95.9096
1646.9108,95.8505
1647.8750,95.7554
1648.8392,95.6327
1649.8035,95.4955
1650.7677,95.3657
1651.7319,95.2788
1652.6962,95.2352
1653.6604,95.1696
1654.6246,95.0778
1655.5889,95.0135
1656.5531,94.9698
1657.5173,94.9112
1658.4816,94.8214
1659.4458,94.7081
1660.4100,94.5898
1661.3743,94.4788
1662.3385,94.3744
1663.3027,94.272
1664.2670,94.1708
1665.2312,94.0705
1666.1954,93.9731
1667.1597,93.8867
1668.1239,93.8221
1669.0881,93.7793
1670.0524,93.7429
1671.0166,93.6988
1671.9808,93.6465
1672.9451,93.5922
1673.9093,93.5445
1674.8735,93.5127
1675.8378,93.5014
1676.8020,93.5052
1677.7662,93.51
1678.7305,93.4992
1679.6947,93.4651
1680.6589,93.4187
1681.6232,93.3921
1682.5874,93.4192
1683.5516,93.4893
1684.5159,93.547
1685.4801,93.5706
1686.4443,93.5775
1687.4086,93.5741
1688.3728,93.5526
1689.3370,93.5062
1690.3013,93.4339
1691.2655,93.3391
1692.2297,93.2275
1693.1940,93.1072
1694.1582,92.9884
1695.1224,92.882
1696.0867,92.7935
1697.0509,92.7188
1698.0151,92.6445
1698.9794,92.561
1699.9436,92.4768
1700.9078,92.4117
1701.8721,92.3757
1702.8363,92.361
1703.8005,92.3514
1704.7648,92.3337
1705.7290,92.3027
1706.6932,92.2617
1707.6575,92.2203
1708.6217,92.1874
1709.5859,92.1648
1710.5502,92.1487
1711.5144,92.134
1712.4786,92.1201
1713.4429,92.1171
1714.4071,92.1507
1715.3713,92.2551
1716.3356,92.437
1717.2998,92.6463
1718.2640,92.8277
1719.2283,92.979
1720.1925,93.1236
1721.1567,93.2775
1722.1210,93.4467
1723.0852,93.6305
1724.0494,93.8223
1725.0137,94.0143
1725.9779,94.2017
1726.9421,94.3833
1727.9064,94.5572
1728.8706,94.7194
1729.8348,94.8717
1730.7991,95.0326
1731.7633,95.2395
1732.7275,95.5188
1733.6918,95.8412
1734.6560,96.1356
1735.6202,96.3636
1736.5845,96.5369
1737.5487,96.6853
1738.5129,96.8361
1739.4772,97.0043
1740.4414,97.1853
1741.4056,97.3584
1742.3699,97.5049
1743.3341,97.6215
1744.2983,97.7166
1745.2626,97.8009
1746.2268,97.8835
1747.1910,97.9731
1748.1553,98.0752
1749.1195,98.1849
1750.0837,98.2865
1751.0480,98.3678
1752.0122,98.4293
1752.9764,98.4784
1753.9407,98.5223
1754.9049,98.5658
1755.8691,98.6103
1756.8334,98.6524
1757.7976,98.6881
1758.7618,98.7172
1759.7261,98.7455
1760.6903,98.7792
1761.6545,98.8186
1762.6188,98.857
1763.5830,98.8868
1764.5472,98.9053
1765.5115,98.9151
1766.4757,98.9219
1767.4399,98.9333
1768.4042,98.9567
1769.3684,98.9989
1770.3326,99.0625
1771.2969,99.1398
1772.2611,99.212
1773.2253,99.2635
1774.1896,99.2941
1775.1538,99.3123
1776.1180,99.3262
1777.0823,99.3419
1778.0465,99.3638
1779.0107,99.3923
1779.9750,99.4224
1780.9392,99.4472
1781.9034,99.4647
1782.8677,99.4793
1783.8319,99.4967
1784.7961,99.5175
1785.7604,99.5361
1786.7246,99.5449
1787.6888,99.5403
1788.6531,99.5276
1789.6173,99.5201
1790.5815,99.5325
1791.5458,99.5667
1792.5100,99.6065
1793.4742,99.6334
1794.4385,99.6432
1795.4027,99.6411
1796.3669,99.6337
1797.3312,99.6276
1798.2954,99.6291
1799.2596,99.6408
1800.2239,99.6584
1801.1881,99.6739
1802.1523,99.6809
1803.1166,99.6781
1804.0808,99.6674
1805.0450,99.6516
1806.0093,99.6346
1806.9735,99.6211
1807.9377,99.6247
1808.9020,99.645
1809.8662,99.6721
1810.8304,99.6992
1811.7947,99.72
1812.7589,99.7323
1813.7231,99.7386
1814.6874,99.7428
1815.6516,99.7483
1816.6158,99.7556
1817.5801,99.7623
1818.5443,99.7647
1819.5085,99.761
1820.4728,99.7529
1821.4370,99.745
1822.4012,99.742
1823.3655,99.7458
1824.3297,99.7542
1825.2939,99.7632
1826.2582,99.7715
1827.2224,99.7815
1828.1866,99.7964
1829.1509,99.8155
1830.1151,99.8329
1831.0793,99.8429
1832.0436,99.8449
1833.0078,99.8418
1833.9720,99.8375
1834.9363,99.8346
1835.9005,99.8334
1836.8647,99.831
1837.8290,99.8228
1838.7932,99.8068
1839.7574,99.7857
1840.7217,99.7676
1841.6859,99.7636
1842.6501,99.7818
1843.6144,99.8183
1844.5786,99.8561
1845.5428,99.8795
1846.5071,99.8857
1847.4713,99.8808
1848.4355,99.8716
1849.3998,99.8622
1850.3640,99.8547
1851.3282,99.8493
1852.2925,99.8453
1853.2567,99.8422
1854.2209,99.8398
1855.1852,99.8382
1856.1494,99.8373
1857.1136,99.8367
1858.0779,99.836
1859.0421,99.8352
1860.0063,99.8343
1860.9706,99.8327
1861.9348,99.8295
1862.8990,99.8239
1863.8633,99.8168
1864.8275,99.8122
1865.7917,99.8167
1866.7560,99.8352
1867.7202,99.8646
1868.6844,99.8924
1869.6487,99.9071
1870.6129,99.9076
1871.5771,99.9003
1872.5414,99.8917
1873.5056,99.8857
1874.4698,99.8837
1875.4341,99.8848
1876.3983,99.8867
1877.3625,99.8871
1878.3268,99.8858
1879.2910,99.8845
1880.2552,99.8856
1881.2195,99.8894
1882.1837,99.8942
1883.1479,99.8969
1884.1122,99.8961
1885.0764,99.8933
1886.0406,99.8925
1887.0049,99.8975
1887.9691,99.9089
1888.9333,99.923
1889.8976,99.9344
1890.8618,99.9402
1891.8260,99.9419
1892.7903,99.9435
1893.7545,99.948
1894.7188,99.9553
1895.6830,99.9626
1896.6472,99.9662
1897.6115,99.9647
1898.5757,99.9599
1899.5399,99.9552
1900.5042,99.9531
1901.4684,99.9541
1902.4326,99.957
1903.3969,99.9598
1904.3611,99.9619
1905.3253,99.9641
1906.2896,99.9686
1907.2538,99.9772
1908.2180,99.9897
1909.1823,100.003
1910.1465,100.014
1911.1107,100.017
1912.0750,100.014
1913.0392,100.007
1914.0034,99.9993
1914.9677,99.9954
1915.9319,99.9972
1916.8961,100.003
1917.8604,100.01
1918.8246,100.015
1919.7888,100.018
1920.7531,100.024
1921.7173,100.034
1922.6815,100.045
1923.6458,100.055
1924.6100,100.058
1925.5742,100.053
1926.5385,100.044
1927.5027,100.034
1928.4669,100.026
1929.4312,100.021
1930.3954,100.019
1931.3596,100.019
1932.3239,100.021
1933.2881,100.025
1934.2523,100.03
1935.2166,100.035
1936.1808,100.036
1937.1450,100.033
1938.1093,100.026
1939.0735,100.021
1940.0377,100.022
1941.0020,100.031
1941.9662,100.045
1942.9304,100.058
1943.8947,100.065
1944.8589,100.064
1945.8231,100.058
1946.7874,100.05
1947.7516,100.044
1948.7158,100.04
1949.6801,100.038
1950.6443,100.038
1951.6085,100.039
1952.5728,100.041
1953.5370,100.042
1954.5012,100.044
1955.4655,100.043
1956.4297,100.042
1957.3939,100.041
1958.3582,100.042
1959.3224,100.045
1960.2866,100.048
1961.2509,100.051
1962.2151,100.053
1963.1793,100.054
1964.1436,100.057
1965.1078,100.06
1966.0720,100.063
1967.0363,100.063
1968.0005,100.059
1968.9647,100.051
1969.9290,100.044
1970.8932,100.041
1971.8574,100.044
1972.8217,100.05
1973.7859,100.058
1974.7501,100.062
1975.7144,100.064
1976.6786,100.062
1977.6428,100.06
1978.6071,100.06
1979.5713,100.061
1980.5355,100.062
1981.4998,100.063
1982.4640,100.063
1983.4282,100.065
1984.3925,100.069
1985.3567,100.074
1986.3209,100.078
1987.2852,100.081
1988.2494,100.083
1989.2136,100.085
1990.1779,100.088
1991.1421,100.093
1992.1063,100.098
1993.0706,100.101
1994.0348,100.099
1994.9990,100.096
1995.9633,100.091
1996.9275,100.089
1997.8917,100.09
1998.8560,100.092
1999.8202,100.094
2000.7844,100.095
2001.7487,100.093
2002.7129,100.091
2003.6771,100.089
2004.6414,100.087
2005.6056,100.086
2006.5698,100.086
2007.5341,100.084
2008.4983,100.081
2009.4625,100.077
2010.4268,100.074
2011.3910,100.071
2012.3552,100.07
2013.3195,100.073
2014.2837,100.078
2015.2479,100.087
2016.2122,100.095
2017.1764,100.101
2018.1406,100.103
2019.1049,100.101
2020.0691,100.095
2021.0333,100.089
2021.9976,100.085
2022.9618,100.084
2023.9260,100.084
2024.8903,100.085
2025.8545,100.084
2026.8187,100.081
2027.7830,100.076
2028.7472,100.072
2029.7114,100.071
2030.6757,100.072
2031.6399,100.075
2032.6041,100.078
2033.5684,100.082
2034.5326,100.085
2035.4968,100.087
2036.4611,100.089
2037.4253,100.09
2038.3895,100.091
2039.3538,100.092
2040.3180,100.093
2041.2822,100.093
2042.2465,100.092
2043.2107,100.092
2044.1749,100.091
2045.1392,100.09
2046.1034,100.089
2047.0676,100.088
2048.0320,100.085
2048.9961,100.083
2049.9604,100.081
2050.9246,100.081
2051.8889,100.082
2052.8530,100.085
2053.8174,100.088
2054.7815,100.09
2055.7458,100.09
2056.7100,100.088
2057.6743,100.087
2058.6384,100.087
2059.6028,100.09
2060.5669,100.097
2061.5313,100.107
2062.4954,100.118
2063.4597,100.129
2064.4238,100.135
2065.3882,100.137
2066.3523,100.133
2067.3167,100.127
2068.2808,100.122
2069.2451,100.12
2070.2092,100.122
2071.1736,100.127
2072.1377,100.133
2073.1021,100.138
2074.0662,100.142
2075.0305,100.147
2075.9946,100.151
2076.9590,100.156
2077.9231,100.161
2078.8875,100.164
2079.8516,100.166
2080.8159,100.167
2081.7800,100.17
2082.7444,100.175
2083.7085,100.184
2084.6729,100.194
2085.6370,100.204
2086.6013,100.211
2087.5654,100.215
2088.5298,100.217
2089.4939,100.218
2090.4583,100.22
2091.4224,100.224
2092.3867,100.229
2093.3508,100.234
2094.3152,100.238
2095.2793,100.24
2096.2437,100.242
2097.2078,100.242
2098.1721,100.242
2099.1362,100.243
2100.1006,100.245
2101.0647,100.249
2102.0291,100.256
2102.9932,100.265
2103.9575,100.274
2104.9216,100.28
2105.8860,100.282
2106.8501,100.281
2107.8145,100.279
2108.7786,100.279
2109.7429,100.281
2110.7070,100.286
2111.6714,100.292
2112.6355,100.297
2113.5999,100.301
2114.5640,100.303
2115.5283,100.304
2116.4924,100.303
2117.4568,100.301
2118.4209,100.299
2119.3853,100.299
2120.3494,100.3
2121.3137,100.303
2122.2778,100.306
2123.2422,100.308
2124.2063,100.31
2125.1707,100.31
2126.1348,100.311
2127.0991,100.313
2128.0632,100.315
2129.0276,100.317
2129.9917,100.318
2130.9561,100.318
2131.9202,100.318
2132.8845,100.32
2133.8486,100.326
2134.8130,100.335
2135.7771,100.345
2136.7415,100.355
2137.7056,100.361
2138.6699,100.362
2139.6340,100.36
2140.5984,100.357
2141.5625,100.356
2142.5269,100.355
2143.4910,100.355
2144.4553,100.355
2145.4194,100.356
2146.3838,100.357
2147.3479,100.361
2148.3123,100.368
2149.2764,100.375
2150.2407,100.381
2151.2048,100.383
2152.1692,100.383
2153.1333,100.382
2154.0977,100.38
2155.0618,100.379
2156.0261,100.38
2156.9902,100.383
2157.9546,100.387
2158.9187,100.394
2159.8831,100.402
2160.8472,100.41
2161.8115,100.417
2162.7756,100.421
2163.7400,100.422
2164.7041,100.421
2165.6685,100.42
2166.6326,100.419
2167.5969,100.421
2168.5610,100.424
2169.5254,100.427
2170.4895,100.429
2171.4539,100.431
2172.4180,100.432
2173.3823,100.432
2174.3464,100.432
2175.3108,100.433
2176.2749,100.434
2177.2393,100.437
2178.2034,100.44
2179.1677,100.444
2180.1318,100.451
2181.0962,100.459
2182.0603,100.468
2183.0247,100.479
2183.9888,100.487
2184.9531,100.493
2185.9172,100.494
2186.8816,100.491
2187.8457,100.484
2188.8101,100.479
2189.7742,100.476
2190.7385,100.478
2191.7026,100.485
2192.6670,100.494
2193.6311,100.503
2194.5955,100.507
2195.5596,100.508
2196.5239,100.506
2197.4880,100.504
2198.4524,100.503
2199.4165,100.504
2200.3809,100.506
2201.3450,100.509
2202.3093,100.511
2203.2734,100.513
2204.2378,100.514
2205.2019,100.515
2206.1663,100.515
2207.1304,100.514
2208.0947,100.513
2209.0588,100.513
2210.0232,100.515
2210.9873,100.519
2211.9517,100.523
2212.9158,100.528
2213.8801,100.53
2214.8442,100.531
2215.8086,100.53
2216.7727,100.531
2217.7371,100.534
2218.7012,100.54
2219.6655,100.547
2220.6296,100.553
2221.5940,100.555
2222.5581,100.553
2223.5225,100.547
2224.4866,100.54
2225.4509,100.533
2226.4150,100.528
2227.3794,100.527
2228.3435,100.528
2229.3079,100.531
2230.2720,100.535
2231.2363,100.54
2232.2004,100.547
2233.1648,100.555
2234.1289,100.562
2235.0933,100.565
2236.0574,100.563
2237.0217,100.556
2237.9858,100.548
2238.9502,100.541
2239.9143,100.537
2240.8787,100.538
2241.8428,100.541
2242.8071,100.543
2243.7712,100.543
2244.7356,100.541
2245.6997,100.539
2246.6641,100.537
2247.6282,100.537
2248.5925,100.536
2249.5566,100.535
2250.5210,100.532
2251.4851,100.528
2252.4495,100.523
2253.4136,100.518
2254.3779,100.513
2255.3420,100.51
2256.3064,100.506
2257.2705,100.503
2258.2349,100.499
2259.1990,100.494
2260.1633,100.489
2261.1274,100.484
2262.0918,100.481
2263.0559,100.479
2264.0203,100.479
2264.9844,100.478
2265.9487,100.478
2266.9128,100.477
2267.8772,100.475
2268.8413,100.472
2269.8057,100.467
2270.7698,100.462
2271.7341,100.458
2272.6982,100.455
2273.6626,100.454
2274.6267,100.455
2275.5911,100.458
2276.5552,100.462
2277.5195,100.467
2278.4836,100.472
2279.4480,100.477
2280.4121,100.48
2281.3765,100.479
2282.3406,100.474
2283.3049,100.462
2284.2690,100.444
2285.2334,100.421
2286.1975,100.395
2287.1619,100.368
2288.1260,100.342
2289.0903,100.316
2290.0544,100.29
2291.0188,100.263
2291.9829,100.236
2292.9473,100.209
2293.9114,100.182
2294.8757,100.155
2295.8398,100.126
2296.8042,100.093
2297.7683,100.057
2298.7327,100.017
2299.6968,99.9718
2300.6611,99.9225
2301.6252,99.8677
2302.5896,99.8066
2303.5537,99.7391
2304.5181,99.667
2305.4822,99.5934
2306.4465,99.5211
2307.4106,99.4516
2308.3750,99.3847
2309.3391,99.3194
2310.3035,99.2556
2311.2676,99.1947
2312.2319,99.1381
2313.1960,99.085
2314.1604,99.0316
2315.1245,98.9722
2316.0889,98.9028
2317.0530,98.8244
2318.0173,98.7438
2318.9814,98.6714
2319.9458,98.6165
2320.9099,98.5838
2321.8743,98.5724
2322.8384,98.5782
2323.8027,98.5972
2324.7668,98.6278
2325.7312,98.6693
2326.6953,98.7202
2327.6597,98.7768
2328.6238,98.8325
2329.5881,98.8805
2330.5522,98.9171
2331.5166,98.9437
2332.4807,98.9647
2333.4451,98.9841
2334.4092,99.0039
2335.3735,99.0243
2336.3376,99.0457
2337.3020,99.0696
2338.2661,99.099
2339.2305,99.1385
2340.1946,99.1906
2341.1589,99.2451
2342.1230,99.2702
2343.0874,99.2279
2344.0515,99.1234
2345.0159,99.0204
2345.9800,98.9732
2346.9443,98.9737
2347.9084,98.9744
2348.8728,98.9364
2349.8369,98.8584
2350.8013,98.7837
2351.7654,98.7879
2352.7297,98.9453
2353.6938,99.2789
2354.6582,99.7408
2355.6223,100.258
2356.5867,100.787
2357.5508,101.303
2358.5151,101.75
2359.4792,102.049
2360.4436,102.147
2361.4077,102.052
2362.3721,101.811
2363.3362,101.465
2364.3005,101.051
2365.2646,100.605
2366.2290,100.166
2367.1931,99.7683
2368.1575,99.4331
2369.1216,99.1706
2370.0859,98.9835
2371.0500,98.8691
2372.0144,98.8204
2372.9785,98.8279
2373.9429,98.8818
2374.9070,98.9735
2375.8713,99.0959
2376.8354,99.2425
2377.7998,99.406
2378.7639,99.578
2379.7283,99.7493
2380.6924,99.9107
2381.6567,100.055
2382.6208,100.178
2383.5852,100.277
2384.5493,100.355
2385.5137,100.414
2386.4778,100.457
2387.4421,100.485
2388.4063,100.502
2389.3706,100.509
2390.3347,100.51
2391.2991,100.506
2392.2632,100.501
2393.2275,100.499
2394.1917,100.502
2395.1560,100.509
2396.1201,100.519
2397.0845,100.528
2398.0486,100.533
2399.0129,100.532
2399.9771,100.527
2400.9414,100.52
2401.9055,100.516
2402.8699,100.517
2403.8340,100.521
2404.7983,100.527
2405.7625,100.532
2406.7268,100.535
2407.6909,100.536
2408.6553,100.538
2409.6194,100.541
2410.5837,100.545
2411.5479,100.548
2412.5122,100.548
2413.4763,100.545
2414.4407,100.539
2415.4048,100.532
2416.3691,100.525
2417.3333,100.52
2418.2976,100.518
2419.2617,100.519
2420.2261,100.523
2421.1902,100.528
2422.1545,100.53
2423.1187,100.53
2424.0830,100.528
2425.0471,100.523
2426.0115,100.519
2426.9756,100.517
2427.9399,100.516
2428.9041,100.517
2429.8684,100.518
2430.8325,100.517
2431.7969,100.514
2432.7610,100.51
2433.7253,100.506
2434.6895,100.503
2435.6538,100.504
2436.6179,100.507
2437.5823,100.511
2438.5464,100.514
2439.5107,100.516
2440.4749,100.515
2441.4392,100.513
2442.4033,100.511
2443.3677,100.511
2444.3318,100.514
2445.2961,100.519
2446.2603,100.526
2447.2246,100.531
2448.1887,100.534
2449.1531,100.533
2450.1172,100.53
2451.0815,100.524
2452.0457,100.519
2453.0100,100.515
2453.9741,100.511
2454.9385,100.508
2455.9026,100.505
2456.8669,100.502
2457.8311,100.502
2458.7954,100.505
2459.7595,100.509
2460.7239,100.513
2461.6880,100.514
2462.6523,100.511
2463.6165,100.505
2464.5808,100.5
2465.5449,100.497
2466.5093,100.5
2467.4734,100.507
2468.4377,100.515
2469.4019,100.52
2470.3662,100.521
2471.3303,100.517
2472.2947,100.51
2473.2588,100.504
2474.2231,100.5
2475.1873,100.498
2476.1516,100.499
2477.1157,100.5
2478.0801,100.503
2479.0442,100.506
2480.0085,100.51
2480.9727,100.515
2481.9370,100.519
2482.9011,100.523
2483.8655,100.523
2484.8296,100.522
2485.7939,100.519
2486.7581,100.516
2487.7224,100.516
2488.6865,100.517
2489.6509,100.52
2490.6150,100.521
2491.5793,100.52
2492.5435,100.516
2493.5078,100.511
2494.4719,100.506
2495.4363,100.503
2496.4004,100.502
2497.3647,100.502
2498.3289,100.502
2499.2932,100.503
2500.2573,100.506
2501.2217,100.511
2502.1858,100.515
2503.1501,100.516
2504.1143,100.512
2505.0786,100.503
2506.0427,100.491
2507.0071,100.483
2507.9712,100.481
2508.9355,100.485
2509.8997,100.491
2510.8640,100.497
2511.8281,100.498
2512.7925,100.496
2513.7566,100.492
2514.7209,100.49
2515.6851,100.49
2516.6494,100.49
2517.6135,100.49
2518.5779,100.49
2519.5420,100.49
2520.5063,100.491
2521.4705,100.495
2522.4348,100.499
2523.3989,100.499
2524.3633,100.495
2525.3274,100.488
2526.2917,100.481
2527.2559,100.478
2528.2202,100.481
2529.1843,100.49
2530.1487,100.5
2531.1128,100.508
2532.0771,100.512
2533.0413,100.509
2534.0056,100.502
2534.9697,100.494
2535.9341,100.488
2536.8982,100.485
2537.8625,100.486
2538.8267,100.491
2539.7910,100.498
2540.7551,100.505
2541.7195,100.51
2542.6836,100.513
2543.6479,100.515
2544.6121,100.515
2545.5764,100.516
2546.5405,100.516
2547.5049,100.516
2548.4690,100.516
2549.4333,100.516
2550.3975,100.515
2551.3618,100.513
2552.3259,100.511
2553.2903,100.508
2554.2544,100.507
2555.2188,100.508
2556.1829,100.511
2557.1472,100.517
2558.1113,100.524
2559.0757,100.529
2560.0398,100.532
2561.0042,100.533
2561.9683,100.533
2562.9326,100.533
2563.8967,100.534
2564.8611,100.535
2565.8252,100.536
2566.7896,100.536
2567.7537,100.538
2568.7180,100.54
2569.6821,100.544
2570.6465,100.548
2571.6106,100.55
2572.5750,100.548
2573.5391,100.544
2574.5034,100.537
2575.4675,100.532
2576.4319,100.53
2577.3960,100.533
2578.3604,100.537
2579.3245,100.54
2580.2888,100.538
2581.2529,100.534
2582.2173,100.529
2583.1814,100.527
2584.1458,100.53
2585.1099,100.536
2586.0742,100.541
2587.0383,100.542
2588.0027,100.539
2588.9668,100.533
2589.9312,100.528
2590.8953,100.527
2591.8596,100.529
2592.8237,100.532
2593.7881,100.534
2594.7522,100.533
2595.7166,100.532
2596.6807,100.531
2597.6450,100.534
2598.6091,100.541
2599.5735,100.549
2600.5376,100.556
2601.5020,100.561
2602.4661,100.562
2603.4304,100.559
2604.3945,100.556
2605.3589,100.552
2606.3230,100.549
2607.2874,100.547
2608.2515,100.547
2609.2158,100.548
2610.1799,100.549
2611.1443,100.552
2612.1084,100.554
2613.0728,100.555
2614.0369,100.555
2615.0012,100.553
2615.9653,100.55
2616.9297,100.547
2617.8938,100.544
2618.8582,100.543
2619.8223,100.544
2620.7866,100.548
2621.7507,100.552
2622.7151,100.557
2623.6792,100.561
2624.6436,100.564
2625.6077,100.563
2626.5720,100.559
2627.5361,100.552
2628.5005,100.546
2629.4646,100.54
2630.4290,100.537
2631.3931,100.537
2632.3574,100.539
2633.3215,100.543
2634.2859,100.548
2635.2500,100.552
2636.2144,100.557
2637.1785,100.561
2638.1428,100.565
2639.1069,100.57
2640.0713,100.575
2641.0354,100.579
2641.9998,100.581
2642.9639,100.581
2643.9282,100.579
2644.8923,100.577
2645.8567,100.578
2646.8208,100.582
2647.7852,100.587
2648.7493,100.591
2649.7136,100.591
2650.6777,100.587
2651.6421,100.58
2652.6062,100.573
2653.5706,100.569
2654.5347,100.569
2655.4990,100.573
2656.4631,100.58
2657.4275,100.588
2658.3916,100.595
2659.3560,100.599
2660.3201,100.6
2661.2844,100.598
2662.2485,100.597
2663.2129,100.597
2664.1770,100.598
2665.1414,100.6
2666.1055,100.601
2667.0698,100.6
2668.0339,100.598
2668.9983,100.596
2669.9624,100.598
2670.9268,100.602
2671.8909,100.607
2672.8552,100.61
2673.8193,100.609
2674.7837,100.605
2675.7478,100.6
2676.7122,100.595
2677.6763,100.593
2678.6406,100.594
2679.6047,100.596
2680.5691,100.598
2681.5332,100.598
2682.4976,100.596
2683.4617,100.591
2684.4260,100.583
2685.3901,100.574
2686.3545,100.566
2687.3186,100.56
2688.2830,100.558
2689.2471,100.56
2690.2114,100.564
2691.1755,100.569
2692.1399,100.571
2693.1040,100.571
2694.0684,100.568
2695.0325,100.564
2695.9968,100.56
2696.9609,100.556
2697.9253,100.553
2698.8894,100.548
2699.8538,100.542
2700.8179,100.533
2701.7822,100.523
2702.7463,100.514
2703.7107,100.509
2704.6748,100.508
2705.6392,100.507
2706.6033,100.504
2707.5676,100.496
2708.5317,100.483
2709.4961,100.469
2710.4602,100.458
2711.4246,100.452
2712.3887,100.451
2713.3530,100.455
2714.3171,100.461
2715.2815,100.465
2716.2456,100.469
2717.2100,100.471
2718.1741,100.472
2719.1384,100.47
2720.1025,100.465
2721.0669,100.457
2722.0310,100.447
2722.9954,100.438
2723.9595,100.431
2724.9238,100.427
2725.8879,100.426
2726.8523,100.428
2727.8164,100.429
2728.7808,100.43
2729.7449,100.429
2730.7092,100.425
2731.6733,100.418
2732.6377,100.411
2733.6018,100.404
2734.5662,100.4
2735.5303,100.396
2736.4946,100.394
2737.4587,100.392
2738.4231,100.389
2739.3872,100.387
2740.3516,100.387
2741.3157,100.388
2742.2800,100.392
2743.2441,100.397
2744.2085,100.403
2745.1726,100.41
2746.1370,100.416
2747.1011,100.419
2748.0654,100.418
2749.0295,100.413
2749.9939,100.407
2750.9580,100.402
2751.9224,100.401
2752.8865,100.403
2753.8508,100.408
2754.8149,100.412
2755.7793,100.413
2756.7434,100.41
2757.7078,100.405
2758.6719,100.4
2759.6362,100.398
2760.6003,100.401
2761.5647,100.407
2762.5288,100.413
2763.4932,100.416
2764.4573,100.416
2765.4216,100.414
2766.3857,100.411
2767.3501,100.41
2768.3142,100.408
2769.2786,100.402
2770.2427,100.391
2771.2070,100.374
2772.1711,100.355
2773.1355,100.338
2774.0996,100.327
2775.0640,100.323
2776.0281,100.325
2776.9924,100.329
2777.9565,100.332
2778.9209,100.332
2779.8850,100.329
2780.8494,100.323
2781.8135,100.314
2782.7778,100.304
2783.7419,100.293
2784.7063,100.284
2785.6704,100.277
2786.6348,100.272
2787.5989,100.267
2788.5632,100.26
2789.5273,100.247
2790.4917,100.23
2791.4558,100.21
2792.4202,100.189
2793.3843,100.17
2794.3486,100.155
2795.3127,100.145
2796.2771,100.137
2797.2412,100.127
2798.2056,100.114
2799.1697,100.095
2800.1340,100.072
2801.0981,100.048
2802.0625,100.027
2803.0266,100.011
2803.9910,100.001
2804.9551,99.9936
2805.9194,99.9834
2806.8835,99.9666
2807.8479,99.9411
2808.8120,99.9076
2809.7764,99.8693
2810.7405,99.8301
2811.7048,99.7931
2812.6689,99.7593
2813.6333,99.7272
2814.5974,99.6943
2815.5618,99.6578
2816.5259,99.6166
2817.4902,99.5709
2818.4543,99.5222
2819.4187,99.4719
2820.3828,99.4205
2821.3472,99.3671
2822.3113,99.3104
2823.2756,99.2488
2824.2397,99.1814
2825.2041,99.108
2826.1682,99.0289
2827.1326,98.9452
2828.0967,98.8581
2829.0610,98.7691
2830.0251,98.6799
2830.9895,98.5924
2831.9536,98.5078
2832.9180,98.427
2833.8821,98.3507
2834.8464,98.2797
2835.8105,98.2149
2836.7749,98.1579
2837.7390,98.1104
2838.7034,98.0741
2839.6675,98.0504
2840.6318,98.0401
2841.5959,98.0429
2842.5603,98.0576
2843.5244,98.0821
2844.4888,98.1142
2845.4529,98.1525
2846.4172,98.1963
2847.3813,98.245
2848.3457,98.2971
2849.3098,98.3495
2850.2742,98.3984
2851.2383,98.4401
2852.2026,98.4723
2853.1667,98.4945
2854.1311,98.5063
2855.0952,98.5074
2856.0596,98.4969
2857.0237,98.4746
2857.9880,98.442
2858.9521,98.4024
2859.9165,98.3599
2860.8806,98.3182
2861.8450,98.2797
2862.8091,98.2456
2863.7734,98.2168
2864.7375,98.1942
2865.7019,98.1789
2866.6660,98.1711
2867.6304,98.1695
2868.5945,98.1717
2869.5588,98.1748
2870.5229,98.1764
2871.4873,98.175
2872.4514,98.1706
2873.4158,98.1647
2874.3799,98.1595
2875.3442,98.1583
2876.3083,98.1636
2877.2727,98.1764
2878.2368,98.1954
2879.2012,98.2175
2880.1653,98.2387
2881.1296,98.2554
2882.0938,98.2663
2883.0581,98.2717
2884.0222,98.2737
2884.9866,98.2741
2885.9507,98.274
2886.9150,98.273
2887.8792,98.2704
2888.8435,98.2653
2889.8076,98.2576
2890.7720,98.2476
2891.7361,98.2354
2892.7004,98.2211
2893.6646,98.205
2894.6289,98.1886
2895.5930,98.1749
2896.5574,98.1666
2897.5215,98.1644
2898.4858,98.1649
2899.4500,98.1612
2900.4143,98.1455
2901.3784,98.1133
2902.3428,98.0659
2903.3069,98.0107
2904.2712,97.9573
2905.2354,97.9139
2906.1997,97.8847
2907.1638,97.869
2908.1282,97.8633
2909.0923,97.8621
2910.0566,97.8608
2911.0208,97.8558
2911.9851,97.8457
2912.9492,97.8313
2913.9136,97.8143
2914.8777,97.7969
2915.8420,97.7799
2916.8062,97.762
2917.7705,97.7403
2918.7346,97.7118
2919.6990,97.6754
2920.6631,97.6325
2921.6274,97.5867
2922.5916,97.5418
2923.5559,97.4993
2924.5200,97.4576
2925.4844,97.4117
2926.4485,97.3566
2927.4128,97.2894
2928.3770,97.2113
2929.3413,97.1278
2930.3054,97.0459
2931.2698,96.9723
2932.2339,96.9113
2933.1982,96.8654
2934.1624,96.8363
2935.1267,96.826
2936.0908,96.8363
2937.0552,96.8676
2938.0193,96.9179
2938.9836,96.982
2939.9478,97.0537
2940.9121,97.1273
2941.8762,97.1996
2942.8406,97.2703
2943.8047,97.3411
2944.7690,97.4142
2945.7332,97.4906
2946.6975,97.5693
2947.6616,97.6477
2948.6260,97.7226
2949.5901,97.7919
2950.5544,97.8555
2951.5186,97.9154
2952.4829,97.9745
2953.4470,98.0345
2954.4114,98.0954
2955.3755,98.1554
2956.3398,98.2129
2957.3040,98.2673
2958.2683,98.3198
2959.2324,98.3718
2960.1968,98.4241
2961.1609,98.476
2962.1252,98.5268
2963.0894,98.5762
2964.0537,98.6256
2965.0178,98.677
2965.9822,98.7317
2966.9463,98.7897
2967.9106,98.8505
2968.8748,98.9137
2969.8391,98.9794
2970.8032,99.0478
2971.7676,99.1186
2972.7317,99.1906
2973.6960,99.2623
2974.6602,99.3335
2975.6245,99.4044
2976.5886,99.4754
2977.5530,99.5451
2978.5171,99.6111
2979.4814,99.6711
2980.4456,99.7254
2981.4099,99.7778
2982.3740,99.8336
2983.3384,99.8974
2984.3025,99.9694
2985.2668,100.045
2986.2310,100.116
2987.1953,100.174
2988.1594,100.213
2989.1238,100.23
2990.0879,100.23
2991.0522,100.214
2992.0164,100.194
2992.9807,100.178
2993.9448,100.168
2994.9092,100.161
2995.8733,100.157
2996.8376,100.151
2997.8018,100.143
2998.7661,100.134
2999.7302,100.128
3000.6946,100.127
3001.6587,100.13
3002.6230,100.137
3003.5872,100.142
3004.5515,100.146
3005.5156,100.148
3006.4800,100.151
3007.4441,100.156
3008.4084,100.163
3009.3726,100.172
3010.3369,100.182
3011.3010,100.19
3012.2654,100.199
3013.2295,100.207
3014.1938,100.213
3015.1580,100.214
3016.1223,100.209
3017.0864,100.195
3018.0508,100.178
3019.0149,100.161
3019.9792,100.149
3020.9434,100.143
3021.9077,100.138
3022.8718,100.132
3023.8362,100.122
3024.8003,100.108
3025.7646,100.095
3026.7288,100.087
3027.6931,100.086
3028.6572,100.092
3029.6216,100.1
3030.5857,100.104
3031.5500,100.101
3032.5142,100.088
3033.4785,100.069
3034.4426,100.049
3035.4070,100.034
3036.3711,100.028
3037.3354,100.029
3038.2996,100.033
3039.2639,100.036
3040.2280,100.033
3041.1924,100.024
3042.1565,100.012
3043.1208,99.9991
3044.0850,99.9863
3045.0493,99.9735
3046.0134,99.9598
3046.9778,99.9448
3047.9419,99.9294
3048.9063,99.9149
3049.8704,99.9024
3050.8347,99.8921
3051.7988,99.8832
3052.7632,99.8747
3053.7273,99.8659
3054.6917,99.8561
3055.6558,99.8452
3056.6201,99.8334
3057.5842,99.8212
3058.5486,99.8101
3059.5127,99.8009
3060.4771,99.794
3061.4412,99.7885
3062.4055,99.7828
3063.3696,99.7756
3064.3340,99.7668
3065.2981,99.7572
3066.2625,99.7484
3067.2266,99.7408
3068.1909,99.7336
3069.1550,99.7252
3070.1194,99.7146
3071.0835,99.7027
3072.0479,99.6919
3073.0120,99.6856
3073.9763,99.6858
3074.9404,99.6922
3075.9048,99.7022
3076.8689,99.712
3077.8333,99.7183
3078.7974,99.7199
3079.7617,99.7175
3080.7258,99.7131
3081.6902,99.7084
3082.6543,99.7044
3083.6187,99.7007
3084.5828,99.6965
3085.5471,99.6905
3086.5112,99.6817
3087.4756,99.6695
3088.4397,99.6541
3089.4041,99.6378
3090.3682,99.6242
3091.3325,99.6172
3092.2966,99.6193
3093.2610,99.6287
3094.2251,99.6403
3095.1895,99.6471
3096.1536,99.6441
3097.1179,99.6307
3098.0820,99.6108
3099.0464,99.5895
3100.0105,99.5705
3100.9749,99.5545
3101.9390,99.54
3102.9033,99.5256
3103.8674,99.5114
3104.8318,99.4986
3105.7959,99.4877
3106.7603,99.4778
3107.7244,99.4667
3108.6887,99.4526
3109.6528,99.436
3110.6172,99.4195
3111.5813,99.4064
3112.5457,99.3982
3113.5098,99.3943
3114.4741,99.3919
3115.4382,99.3883
3116.4026,99.3816
3117.3667,99.3715
3118.3311,99.3584
3119.2952,99.3427
3120.2595,99.3248
3121.2236,99.3058
3122.1880,99.2875
3123.1521,99.2719
3124.1165,99.2596
3125.0806,99.2496
3126.0449,99.2393
3127.0090,99.2271
3127.9734,99.2135
3128.9375,99.2019
3129.9019,99.196
3130.8660,99.197
3131.8303,99.2019
3132.7944,99.2046
3133.7588,99.199
3134.7229,99.183
3135.6873,99.1598
3136.6514,99.1356
3137.6157,99.1157
3138.5798,99.1022
3139.5442,99.0928
3140.5083,99.0833
3141.4727,99.0701
3142.4368,99.0523
3143.4011,99.0318
3144.3652,99.0119
3145.3296,98.9961
3146.2937,98.9859
3147.2581,98.981
3148.2222,98.9788
3149.1865,98.9754
3150.1506,98.9672
3151.1150,98.9519
3152.0791,98.9299
3153.0435,98.9038
3154.0076,98.8774
3154.9719,98.8539
3155.9360,98.8339
3156.9004,98.8158
3157.8645,98.7963
3158.8289,98.7732
3159.7930,98.7471
3160.7573,98.7224
3161.7214,98.7053
3162.6858,98.7006
3163.6499,98.708
3164.6143,98.7216
3165.5784,98.7319
3166.5427,98.7304
3167.5068,98.7136
3168.4712,98.6839
3169.4353,98.5798
3170.3997,98.5458
3171.3638,98.5193
3172.3281,98.5023
3173.2922,98.4948
3174.2566,98.495
3175.2207,98.4999
3176.1851,98.5045
3177.1492,98.5031
3178.1135,98.491
3179.0776,98.4675
3180.0420,98.4363
3181.0061,98.4042
3181.9705,98.3773
3182.9346,98.3591
3183.8989,98.3494
3184.8630,98.3457
3185.8274,98.3448
3186.7915,98.3435
3187.7559,98.3392
3188.7200,98.3294
3189.6843,98.3126
3190.6484,98.2889
3191.6128,98.2604
3192.5769,98.2308
3193.5413,98.2036
3194.5054,98.1806
3195.4697,98.1612
3196.4338,98.1438
3197.3982,98.127
3198.3623,98.1118
3199.3267,98.1008
3200.2908,98.0972
3201.2551,98.1014
3202.2192,98.11
3203.1836,98.1158
3204.1477,98.1116
3205.1121,98.0936
3206.0762,98.0642
3207.0405,98.0312
3208.0046,98.0038
3208.9690,97.9883
3209.9331,97.9842
3210.8975,97.9855
3211.8616,97.9846
3212.8259,97.9768
3213.7900,97.9628
3214.7544,97.9474
3215.7185,97.9363
3216.6829,97.9315
3217.6470,97.9307
3218.6113,97.9285
3219.5754,97.9198
3220.5398,97.9026
3221.5039,97.8786
3222.4683,97.8523
3223.4324,97.828
3224.3967,97.8085
3225.3608,97.7945
3226.3252,97.7857
3227.2893,97.7815
3228.2537,97.7808
3229.2178,97.7823
3230.1821,97.7838
3231.1462,97.7826
3232.1106,97.776
3233.0747,97.7623
3234.0391,97.7414
3235.0032,97.7142
3235.9675,97.6826
3236.9316,97.65
3237.8960,97.6203
3238.8601,97.5969
3239.8245,97.5821
3240.7886,97.5746
3241.7529,97.5711
3242.7170,97.567
3243.6814,97.5594
3244.6455,97.5482
3245.6099,97.535
3246.5740,97.5214
3247.5383,97.5065
3248.5024,97.4875
3249.4668,97.4622
3250.4309,97.4319
3251.3953,97.4022
3252.3594,97.3798
3253.3237,97.3682
3254.2878,97.3647
3255.2522,97.3611
3256.2163,97.3489
3257.1807,97.3242
3258.1448,97.29
3259.1091,97.2547
3260.0732,97.2263
3261.0376,97.209
3262.0017,97.2009
3262.9661,97.1963
3263.9302,97.1894
3264.8945,97.177
3265.8586,97.1596
3266.8230,97.1397
3267.7871,97.1204
3268.7515,97.104
3269.7156,97.0913
3270.6799,97.082
3271.6440,97.0747
3272.6084,97.0674
3273.5725,97.0578
3274.5369,97.0446
3275.5010,97.0285
3276.4653,97.012
3277.4294,96.9985
3278.3938,96.9899
3279.3579,96.9856
3280.3223,96.9829
3281.2864,96.9787
3282.2507,96.9714
3283.2148,96.9614
3284.1792,96.9502
3285.1433,96.9386
3286.1077,96.9258
3287.0718,96.9102
3288.0361,96.8918
3289.0002,96.8727
3289.9646,96.8563
3290.9287,96.8455
3291.8931,96.8396
3292.8572,96.8346
3293.8215,96.8257
3294.7856,96.8105
3295.7500,96.7906
3296.7141,96.7715
3297.6785,96.7592
3298.6426,96.7573
3299.6069,96.7651
3300.5710,96.778
3301.5354,96.7901
3302.4995,96.7963
3303.4639,96.7945
3304.4280,96.7852
3305.3923,96.7709
3306.3564,96.7548
3307.3208,96.7393
3308.2849,96.7258
3309.2493,96.7146
3310.2134,96.7047
3311.1777,96.6946
3312.1418,96.6819
3313.1062,96.6649
3314.0703,96.6429
3315.0347,96.618
3315.9988,96.5939
3316.9631,96.5749
3317.9272,96.5633
3318.8916,96.558
3319.8557,96.5547
3320.8201,96.5485
3321.7842,96.5363
3322.7485,96.5186
3323.7126,96.4986
3324.6770,96.4804
3325.6411,96.4667
3326.6055,96.4574
3327.5696,96.4504
3328.5339,96.4432
3329.4980,96.4341
3330.4624,96.423
3331.4265,96.4106
3332.3909,96.3989
3333.3550,96.39
3334.3193,96.3863
3335.2834,96.3895
3336.2478,96.4005
3337.2119,96.4174
3338.1763,96.4359
3339.1404,96.45
3340.1047,96.4542
3341.0688,96.4462
3342.0332,96.4285
3342.9973,96.4076
3343.9617,96.3907
3344.9258,96.3821
3345.8901,96.3809
3346.8542,96.3819
3347.8186,96.3789
3348.7827,96.3683
3349.7471,96.3504
3350.7112,96.3285
3351.6755,96.3069
3352.6396,96.2885
3353.6040,96.2753
3354.5681,96.2692
3355.5325,96.272
3356.4966,96.2841
3357.4609,96.3037
3358.4250,96.3253
3359.3894,96.3419
3360.3535,96.3485
3361.3179,96.3442
3362.2820,96.333
3363.2463,96.321
3364.2104,96.3134
3365.1748,96.3123
3366.1389,96.316
3367.1033,96.3214
3368.0674,96.3263
3369.0317,96.3304
3369.9958,96.3354
3370.9602,96.3439
3371.9243,96.3569
3372.8887,96.3732
3373.8528,96.3884
3374.8171,96.3968
3375.7813,96.3933
3376.7456,96.3764
3377.7097,96.3492
3378.6741,96.3184
3379.6382,96.2922
3380.6025,96.2767
3381.5667,96.275
3382.5310,96.2865
3383.4951,96.3075
3384.4595,96.3319
3385.4236,96.3523
3386.3879,96.3622
3387.3521,96.3586
3388.3164,96.344
3389.2805,96.3257
3390.2449,96.3124
3391.2090,96.3094
3392.1733,96.3154
3393.1375,96.3236
3394.1018,96.3268
3395.0659,96.3218
3396.0303,96.3117
3396.9944,96.3024
3397.9587,96.2981
3398.9229,96.2986
3399.8872,96.2998
3400.8513,96.2982
3401.8157,96.2938
3402.7798,96.2905
3403.7441,96.2922
3404.7083,96.2988
3405.6726,96.3053
3406.6367,96.3044
3407.6011,96.2922
3408.5652,96.2713
3409.5295,96.2507
3410.4937,96.2402
3411.4580,96.2451
3412.4221,96.262
3413.3865,96.2814
3414.3506,96.2929
3415.3149,96.2911
3416.2791,96.279
3417.2434,96.2649
3418.2075,96.2577
3419.1719,96.2615
3420.1360,96.2742
3421.1003,96.2892
3422.0645,96.3003
3423.0288,96.3047
3423.9929,96.3032
3424.9573,96.299
3425.9214,96.2951
3426.8857,96.2933
3427.8499,96.2941
3428.8142,96.2972
3429.7783,96.303
3430.7427,96.3127
3431.7068,96.328
3432.6711,96.3493
3433.6353,96.3742
3434.5996,96.3981
3435.5637,96.4158
3436.5281,96.4235
3437.4922,96.4205
3438.4565,96.4077
3439.4207,96.387
3440.3850,96.36
3441.3491,96.3297
3442.3135,96.3023
3443.2776,96.2874
3444.2419,96.2952
3445.2061,96.3302
3446.1704,96.3863
3447.1345,96.4476
3448.0989,96.4961
3449.0630,96.5212
3450.0273,96.5232
3450.9915,96.5108
3451.9558,96.4955
3452.9199,96.4863
3453.8843,96.4865
3454.8484,96.4939
3455.8127,96.5046
3456.7769,96.5164
3457.7412,96.5305
3458.7053,96.5502
3459.6697,96.5776
3460.6338,96.6115
3461.5981,96.6467
3462.5623,96.6767
3463.5266,96.6973
3464.4907,96.7091
3465.4551,96.717
3466.4192,96.7269
3467.3835,96.7418
3468.3477,96.76
3469.3120,96.7767
3470.2761,96.7874
3471.2405,96.7912
3472.2046,96.7918
3473.1689,96.7943
3474.1331,96.8024
3475.0974,96.8158
3476.0615,96.8321
3477.0259,96.8495
3477.9900,96.8687
3478.9543,96.8917
3479.9185,96.9186
3480.8828,96.9452
3481.8469,96.9649
3482.8113,96.9737
3483.7754,96.9739
3484.7397,96.9736
3485.7039,96.9821
3486.6682,97.0048
3487.6323,97.0399
3488.5967,97.0789
3489.5608,97.1114
3490.5251,97.131
3491.4893,97.1389
3492.4536,97.1425
3493.4177,97.1512
3494.3821,97.1699
3495.3462,97.1955
3496.3105,97.2189
3497.2747,97.2312
3498.2390,97.2319
3499.2031,97.2306
3500.1675,97.2425
3501.1316,97.2778
3502.0959,97.3309
3503.0601,97.382
3504.0244,97.4105
3504.9885,97.4099
3505.9529,97.39
3506.9170,97.37
3507.8813,97.3692
3508.8455,97.3974
3509.8098,97.4498
3510.7739,97.5114
3511.7383,97.5681
3512.7024,97.612
3513.6667,97.6419
3514.6309,97.6597
3515.5952,97.6677
3516.5593,97.6686
3517.5237,97.6674
3518.4878,97.671
3519.4521,97.6867
3520.4163,97.7184
3521.3806,97.764
3522.3447,97.8161
3523.3091,97.8676
3524.2732,97.9183
3525.2375,97.9742
3526.2017,98.0403
3527.1660,98.1128
3528.1301,98.1769
3529.0945,98.2161
3530.0586,98.2236
3531.0229,98.2068
3531.9871,98.1838
3532.9514,98.1749
3533.9155,98.1948
3534.8799,98.2462
3535.8440,98.3178
3536.8083,98.3912
3537.7725,98.451
3538.7368,98.4914
3539.7009,98.5154
3540.6653,98.533
3541.6294,98.5592
3542.5938,98.61
3543.5579,98.6926
3544.5222,98.7948
3545.4863,98.8887
3546.4507,98.9497
3547.4148,98.9725
3548.3792,98.9695
3549.3433,98.9624
3550.3076,98.9757
3551.2717,99.0267
3552.2361,99.1154
3553.2002,99.2229
3554.1646,99.3244
3555.1287,99.4045
3556.0930,99.4633
3557.0571,99.5115
3558.0215,99.5584
3558.9856,99.5998
3559.9500,99.6163
3560.9141,99.5874
3561.8784,99.5117
3562.8425,99.4216
3563.8069,99.3828
3564.7710,99.465
3565.7354,99.6758
3566.6995,99.92
3567.6638,100.079
3568.6279,100.125
3569.5923,100.096
3570.5564,100.021
3571.5208,99.9328
3572.4849,99.8531
3573.4492,99.8076
3574.4133,99.8121
3575.3777,99.8645
3576.3418,99.9485
3577.3062,100.043
3578.2703,100.125
3579.2346,100.176
3580.1987,100.174
3581.1631,100.108
3582.1272,99.9819
3583.0916,99.8292
3584.0557,99.714
3585.0200,99.7126
3585.9841,99.855
3586.9485,100.069
3587.9126,100.229
3588.8770,100.273
3589.8411,100.223
3590.8054,100.128
3591.7695,100.033
3592.7339,99.9798
3593.6980,99.988
3594.6624,100.04
3595.6265,100.098
3596.5908,100.138
3597.5549,100.168
3598.5193,100.209
3599.4834,100.268
3600.4478,100.328
3601.4119,100.354
3602.3762,100.321
3603.3403,100.233
3604.3047,100.118
3605.2688,100.023
3606.2332,99.9861
3607.1973,100.012
3608.1616,100.067
3609.1257,100.113
3610.0901,100.139
3611.0542,100.152
3612.0186,100.155
3612.9829,100.14
3613.9470,100.097
3614.9114,100.031
3615.8755,99.9753
3616.8398,99.9768
3617.8040,100.065
3618.7683,100.215
3619.7324,100.353
3620.6968,100.418
3621.6609,100.389
3622.6252,100.262
3623.5894,100.041
3624.5537,99.7668
3625.5178,99.5436
3626.4822,99.5165
3627.4463,99.7565
3628.4106,100.121
3629.3748,100.367
3630.3391,100.427
3631.3032,100.381
3632.2676,100.3
3633.2317,100.216
3634.1960,100.151
3635.1602,100.121
3636.1245,100.129
3637.0886,100.165
3638.0530,100.216
3639.0171,100.269
3639.9814,100.31
3640.9456,100.316
3641.9099,100.262
3642.8740,100.127
3643.8384,99.9203
3644.8025,99.7127
3645.7668,99.6554
3646.7310,99.9447
3647.6953,100.61
3648.6594,101.243
3649.6238,101.37
3650.5879,101.081
3651.5522,100.692
3652.5164,100.34
3653.4807,100.056
3654.4448,99.8706
3655.4092,99.8234
3656.3733,99.9146
3657.3376,100.088
3658.3018,100.27
3659.2661,100.416
3660.2302,100.515
3661.1946,100.568
3662.1587,100.574
3663.1230,100.517
3664.0872,100.379
3665.0515,100.17
3666.0156,99.9491
3666.9800,99.8194
3667.9441,99.865
3668.9084,100.046
3669.8726,100.19
3670.8369,100.162
3671.8010,99.9924
3672.7654,99.8217
3673.7295,99.8095
3674.6938,100.022
3675.6580,100.342
3676.6223,100.581
3677.5864,100.671
3678.5508,100.656
3679.5149,100.578
3680.4792,100.461
3681.4434,100.311
3682.4077,100.124
3683.3718,99.8897
3684.3362,99.6148
3685.3003,99.3515
3686.2646,99.2111
3687.2288,99.3236
3688.1931,99.7105
3689.1572,100.179
3690.1216,100.472
3691.0857,100.526
3692.0500,100.424
3693.0142,100.252
3693.9785,100.049
3694.9426,99.8367
3695.9070,99.6303
3696.8711,99.4501
3697.8354,99.3264
3698.7996,99.2971
3699.7639,99.3889
3700.7280,99.5825
3701.6924,99.7989
3702.6565,99.9375
3703.6208,99.9359
3704.5850,99.7879
3705.5493,99.5277
3706.5134,99.2218
3707.4778,98.9739
3708.4419,98.9123
3709.4063,99.1211
3710.3704,99.5266
3711.3347,99.8846
3712.2988,100.045
3713.2632,100.035
3714.2273,99.9313
3715.1917,99.7779
3716.1558,99.604
3717.1201,99.4482
3718.0842,99.3578
3719.0486,99.3678
3720.0127,99.4818
3720.9771,99.6719
3721.9412,99.8977
3722.9055,100.122
3723.8696,100.311
3724.8340,100.429
3725.7981,100.448
3726.7625,100.359
3727.7266,100.172
3728.6909,99.9137
3729.6550,99.6298
3730.6194,99.4032
3731.5835,99.3537
3732.5479,99.6021
3733.5120,100.162
3734.4763,100.823
3735.4404,101.257
3736.4048,101.333
3737.3689,101.148
3738.3333,100.812
3739.2974,100.373
3740.2617,99.8673
3741.2258,99.3914
3742.1902,99.0969
3743.1543,99.0992
3744.1187,99.3391
3745.0828,99.6073
3746.0471,99.7532
3747.0112,99.7835
3747.9756,99.8039
3748.9397,99.9276
3749.9041,100.148
3750.8682,100.286
3751.8325,100.211
3752.7966,99.9957
3753.7610,99.749
3754.7251,99.52
3755.6895,99.3432
3756.6536,99.2652
3757.6179,99.3103
3758.5820,99.4362
3759.5464,99.5541
3760.5105,99.5973
3761.4749,99.5539
3762.4390,99.45
3763.4033,99.3265
3764.3674,99.2232
3765.3318,99.1677
3766.2959,99.1695
3767.2603,99.2238
3768.2244,99.3168
3769.1887,99.426
3770.1528,99.5214
3771.1172,99.5726
3772.0813,99.5596
3773.0457,99.476
3774.0098,99.3339
3774.9741,99.1705
3775.9382,99.047
3776.9026,99.0255
3777.8667,99.1255
3778.8311,99.2989
3779.7952,99.4641
3780.7595,99.5665
3781.7236,99.5996
3782.6880,99.5853
3783.6521,99.5491
3784.6165,99.5074
3785.5806,99.4659
3786.5449,99.4259
3787.5090,99.3883
3788.4734,99.3524
3789.4375,99.3146
3790.4019,99.2723
3791.3660,99.2313
3792.3303,99.2096
3793.2944,99.228
3794.2588,99.2907
3795.2229,99.3708
3796.1873,99.4237
3797.1514,99.4228
3798.1157,99.3858
3799.0798,99.3599
3800.0442,99.3683
3801.0083,99.3714
3801.9727,99.3074
3802.9368,99.167
3803.9011,99.0024
3804.8652,98.8924
3805.8296,98.906
3806.7937,99.0573
3807.7581,99.2792
3808.7222,99.4642
3809.6865,99.5311
3810.6506,99.4565
3811.6150,99.2782
3812.5791,99.087
3813.5435,98.9886
3814.5076,99.0309
3815.4719,99.1536
3816.4360,99.2455
3817.4004,99.2558
3818.3645,99.2251
3819.3289,99.2228
3820.2930,99.271
3821.2573,99.3298
3822.2214,99.3577
3823.1858,99.3515
3824.1499,99.3271
3825.1143,99.3023
3826.0784,99.2945
3827.0427,99.3156
3828.0068,99.3634
3828.9712,99.4199
3829.9353,99.4588
3830.8997,99.4535
3831.8638,99.3847
3832.8281,99.2477
3833.7922,99.0632
3834.7566,98.882
3835.7207,98.774
3836.6851,98.793
3837.6492,98.9354
3838.6135,99.1372
3839.5776,99.3292
3840.5420,99.4844
3841.5061,99.6108
3842.4705,99.7204
3843.4346,99.81
3844.3989,99.857
3845.3630,99.8258
3846.3274,99.6785
3847.2915,99.3896
3848.2559,98.9677
3849.2200,98.4882
3850.1843,98.1276
3851.1484,98.1461
3852.1128,98.686
3853.0769,99.4436
3854.0413,99.9106
3855.0054,100.011
3855.9697,99.9324
3856.9338,99.767
3857.8982,99.5311
3858.8623,99.2528
3859.8267,99.0016
3860.7908,98.8691
3861.7551,98.9128
3862.7192,99.0965
3863.6836,99.2959
3864.6477,99.3921
3865.6121,99.3519
3866.5762,99.2243
3867.5405,99.0957
3868.5046,99.0466
3869.4690,99.1126
3870.4331,99.263
3871.3975,99.4218
3872.3616,99.5214
3873.3259,99.5336
3874.2900,99.4627
3875.2544,99.3305
3876.2185,99.1734
3877.1829,99.0416
3878.1470,98.9873
3879.1113,99.0363
3880.0754,99.1622
3881.0398,99.2981
3882.0039,99.3851
3882.9683,99.406
3883.9324,99.3758
3884.8967,99.3133
3885.8608,99.227
3886.8252,99.1235
3887.7893,99.0225
3888.7537,98.9666
3889.7178,99.012
3890.6821,99.1839
3891.6462,99.4283
3892.6106,99.632
3893.5747,99.7075
3894.5391,99.6359
3895.5032,99.4513
3896.4675,99.2183
3897.4316,99.0125
3898.3960,98.8925
3899.3601,98.877
3900.3245,98.9494
3901.2886,99.0854
3902.2529,99.2611
3903.2170,99.4398
3904.1814,99.5758
3905.1455,99.6416
3906.1099,99.6399
3907.0740,99.5899
3908.0383,99.5154
3909.0024,99.4382
3909.9668,99.3724
3910.9309,99.3198
3911.8953,99.2739
3912.8594,99.2319
3913.8237,99.2069
3914.7878,99.225
3915.7522,99.3045
3916.7163,99.4303
3917.6807,99.5519
3918.6448,99.6176
3919.6091,99.609
3920.5732,99.5453
3921.5376,99.4668
3922.5017,99.4135
3923.4661,99.404
3924.4302,99.4251
3925.3945,99.4436
3926.3586,99.4326
3927.3230,99.3896
3928.2871,99.3384
3929.2515,99.3171
3930.2156,99.3552
3931.1799,99.4508
3932.1440,99.5681
3933.1084,99.6617
3934.0725,99.7017
3935.0369,99.679
3936.0010,99.6003
3936.9653,99.4835
3937.9294,99.3559
3938.8938,99.2509
3939.8579,99.1989
3940.8223,99.2138
3941.7864,99.2822
3942.7507,99.3681
3943.7148,99.4349
3944.6792,99.4658
3945.6433,99.4696
3946.6077,99.4702
3947.5718,99.489
3948.5361,99.529
3949.5002,99.5723
3950.4646,99.5938
3951.4287,99.5789
3952.3931,99.5303
3953.3572,99.4639
3954.3215,99.4001
3955.2856,99.3564
3956.2500,99.3429
3957.2141,99.362
3958.1785,99.411
3959.1426,99.4828
3960.1069,99.565
3961.0710,99.6403
3962.0354,99.6902
3962.9995,99.7027
3963.9639,99.6772
3964.9280,99.6246
3965.8923,99.561
3966.8564,99.5016
3967.8208,99.4568
3968.7849,99.4313
3969.7493,99.4262
3970.7134,99.4412
3971.6777,99.4749
3972.6418,99.5222
3973.6062,99.5728
3974.5703,99.6138
3975.5347,99.6347
3976.4988,99.6335
3977.4631,99.6176
3978.4272,99.5993
3979.3916,99.5887
3980.3557,99.5886
3981.3201,99.5934
3982.2842,99.5934
3983.2485,99.5811
3984.2126,99.556
3985.1770,99.5247
3986.1411,99.4976
3987.1055,99.4838
3988.0696,99.4879
3989.0339,99.5075
3989.9980,99.5344
3990.9624,99.5581
3991.9265,99.5708
3992.8909,99.5703
3993.8550,99.561
3994.8193,99.5489
3995.7834,99.5416
3996.7478,99.5424
3997.7119,99.5496
3998.6763,99.5593
3999.6404,99.5676
4000.6047,99.7278

##### Extended Information
[Comments]
Sample name
Comment
User
Division
Company,HANKYONG

[Detailed Information]
Creation date,4/24/2024 2:33 PM

Data array type,Linear data array
Horizontal axis,Wavenumber [cm-1]
Vertical axis,%T
Start,649.893 cm-1
End,4000.6 cm-1
Data interval,0.964233 cm-1
Data points,3476    

[Measurement Information]
Model Name,FT/IR-4700typeA
Serial Number,D056761788

Accessory,ATR PRO ONE
Accessory S/N,C174761809
Incident angle,45 deg

Measurement Date,4/24/2024 2:31 PM

Light Source,Standard
Detector,TGS
Accumulation,32
Resolution,4 cm-1
Zero Filling,On
Apodization,Cosine
Gain,Auto (4)
Aperture,Auto (7.1 mm)
Scanning Speed,Auto (2 mm/sec)
Filter,Auto (30000 Hz)

