TITLE,
DATA TYPE,INFRARED SPECTRUM
ORIGIN,JASCO
OWNER,
DATE,24/04/24
TIME,14:37:30
SPECTROMETER/DATA SYSTEM,
LOCALE,1033
RESOLUTION,
DELTAX,0.964233
XUNITS,1/CM
YUNITS,TRANSMITTANCE
FIRSTX,  649.8934
LASTX, 4000.6047
NPOINTS,    3476
FIRSTY,    99.23272
MAXY,   101.39955
MINY,    88.68379
XYDATA
649.8934,99.2327
650.8576,99.205
651.8218,99.1999
652.7861,99.2052
653.7503,99.1951
654.7145,99.1516
655.6788,99.0757
656.6430,98.986
657.6072,98.9044
658.5715,98.8428
659.5357,98.8009
660.4999,98.774
661.4642,98.7643
662.4284,98.7842
663.3926,98.8511
664.3569,98.9811
665.3211,99.1845
666.2853,99.4508
667.2496,99.7123
668.2138,99.8311
669.1780,99.7344
670.1423,99.5425
671.1065,99.4081
672.0707,99.3813
673.0350,99.4445
673.9992,99.5578
674.9634,99.676
675.9277,99.7621
676.8919,99.8027
677.8561,99.8127
678.8204,99.8185
679.7846,99.8379
680.7488,99.871
681.7131,99.9064
682.6773,99.9326
683.6415,99.9466
684.6058,99.9532
685.5700,99.9591
686.5342,99.9665
687.4985,99.9719
688.4627,99.968
689.4269,99.9495
690.3912,99.9173
691.3554,99.8789
692.3196,99.844
693.2839,99.8184
694.2481,99.8023
695.2123,99.7908
696.1766,99.7761
697.1408,99.7512
698.1050,99.7151
699.0693,99.6751
700.0335,99.6424
700.9977,99.6269
701.9620,99.6314
702.9262,99.6513
703.8904,99.6765
704.8547,99.6962
705.8189,99.7033
706.7831,99.6964
707.7474,99.6804
708.7116,99.6636
709.6758,99.6546
710.6401,99.6598
711.6043,99.6813
712.5685,99.7168
713.5328,99.7612
714.4970,99.809
715.4612,99.848
716.4255,99.8939
717.3897,99.936
718.3539,99.9713
719.3182,99.9958
720.2824,100.007
721.2466,100.006
722.2109,100.003
723.1751,100.005
724.1393,100.019
725.1036,100.041
726.0678,100.063
727.0320,100.075
727.9963,100.071
728.9605,100.056
729.9247,100.043
730.8890,100.047
731.8532,100.075
732.8174,100.121
733.7817,100.169
734.7459,100.2
735.7101,100.205
736.6744,100.185
737.6386,100.157
738.6028,100.138
739.5671,100.137
740.5313,100.153
741.4955,100.176
742.4598,100.192
743.4240,100.195
744.3882,100.185
745.3525,100.168
746.3167,100.152
747.2809,100.14
748.2452,100.137
749.2094,100.143
750.1736,100.162
751.1379,100.194
752.1021,100.232
753.0663,100.262
754.0306,100.271
754.9948,100.25
755.9590,100.201
756.9233,100.14
757.8875,100.085
758.8517,100.048
759.8160,100.033
760.7802,100.033
761.7444,100.038
762.7087,100.044
763.6729,100.05
764.6371,100.062
765.6014,100.087
766.5656,100.11
767.5298,100.125
768.4941,100.127
769.4583,100.116
770.4225,100.098
771.3868,100.081
772.3510,100.07
773.3152,100.069
774.2795,100.076
775.2437,100.086
776.2079,100.093
777.1722,100.092
778.1364,100.081
779.1006,100.064
780.0649,100.046
781.0291,100.032
781.9933,100.028
782.9576,100.033
783.9218,100.044
784.8860,100.059
785.8503,100.076
786.8145,100.095
787.7787,100.115
788.7430,100.136
789.7072,100.154
790.6714,100.167
791.6357,100.172
792.5999,100.169
793.5641,100.161
794.5284,100.152
795.4926,100.149
796.4568,100.159
797.4211,100.181
798.3853,100.211
799.3495,100.239
800.3138,100.252
801.2780,100.247
802.2422,100.223
803.2065,100.191
804.1707,100.161
805.1349,100.143
806.0992,100.141
807.0634,100.152
808.0276,100.169
808.9919,100.184
809.9561,100.191
810.9203,100.191
811.8846,100.188
812.8488,100.187
813.8130,100.191
814.7773,100.195
815.7415,100.193
816.7057,100.18
817.6700,100.158
818.6342,100.133
819.5984,100.114
820.5627,100.108
821.5269,100.113
822.4911,100.125
823.4554,100.135
824.4196,100.142
825.3839,100.146
826.3481,100.148
827.3123,100.15
828.2766,100.15
829.2408,100.142
830.2050,100.125
831.1693,100.1
832.1335,100.071
833.0977,100.046
834.0620,100.029
835.0262,100.022
835.9904,100.023
836.9547,100.026
837.9189,100.029
838.8831,100.029
839.8474,100.03
840.8116,100.032
841.7758,100.035
842.7401,100.036
843.7043,100.03
844.6685,100.016
845.6328,99.997
846.5970,99.9806
847.5612,99.9713
848.5255,99.9697
849.4897,99.9716
850.4539,99.9712
851.4182,99.9657
852.3824,99.9555
853.3466,99.9428
854.3109,99.929
855.2751,99.9137
856.2393,99.9181
857.2036,99.9272
858.1678,99.9365
859.1320,99.948
860.0963,99.9615
861.0605,99.9744
862.0247,99.9833
862.9890,99.9864
863.9532,99.9835
864.9174,99.975
865.8817,99.9605
866.8459,99.9382
867.8101,99.906
868.7744,99.8632
869.7386,99.8113
870.7028,99.7535
871.6671,99.6938
872.6313,99.6366
873.5955,99.5861
874.5598,99.5455
875.5240,99.5167
876.4882,99.4987
877.4525,99.4885
878.4167,99.4824
879.3809,99.4769
880.3452,99.4695
881.3094,99.457
882.2736,99.4356
883.2379,99.4011
884.2021,99.3514
885.1663,99.2885
886.1306,99.2191
887.0948,99.1519
888.0590,99.0935
889.0233,99.0454
889.9875,99.0036
890.9517,98.9615
891.9160,98.9145
892.8802,98.8641
893.8444,98.8177
894.8087,98.7857
895.7729,98.7759
896.7371,98.7906
897.7014,98.8253
898.6656,98.8728
899.6298,98.927
900.5941,98.986
901.5583,99.0514
902.5225,99.1247
903.4868,99.2046
904.4510,99.2857
905.4152,99.3611
906.3795,99.4252
907.3437,99.4757
908.3079,99.5127
909.2722,99.5374
910.2364,99.5512
911.2006,99.556
912.1649,99.5553
913.1291,99.5533
914.0933,99.5529
915.0576,99.554
916.0218,99.5527
916.9860,99.5433
917.9503,99.5218
918.9145,99.4882
919.8787,99.4469
920.8430,99.4043
921.8072,99.3661
922.7714,99.3358
923.7357,99.3136
924.6999,99.2972
925.6641,99.2823
926.6284,99.2639
927.5926,99.2378
928.5568,99.203
929.5211,99.151
930.4853,99.079
931.4495,99.0106
932.4138,98.9467
933.3780,98.8838
934.3422,98.816
935.3065,98.7387
936.2707,98.651
937.2349,98.5562
938.1992,98.4586
939.1634,98.3612
940.1276,98.2641
941.0919,98.1656
942.0561,98.0639
943.0203,97.9585
943.9846,97.8492
944.9488,97.7354
945.9130,97.6158
946.8773,97.4892
947.8415,97.3563
948.8057,97.2203
949.7700,97.0863
950.7342,96.9588
951.6984,96.8393
952.6627,96.7259
953.6269,96.6143
954.5911,96.5002
955.5554,96.3819
956.5196,96.2614
957.4838,96.143
958.4481,96.0308
959.4123,95.9257
960.3765,95.8241
961.3408,95.7204
962.3050,95.6098
963.2692,95.4916
964.2335,95.3696
965.1977,95.2492
966.1619,95.1335
967.1262,95.0204
968.0904,94.9033
969.0546,94.7743
970.0189,94.6283
970.9831,94.4656
971.9473,94.2908
972.9116,94.1093
973.8758,93.9247
974.8400,93.737
975.8043,93.5441
976.7685,93.344
977.7327,93.1364
978.6970,92.9237
979.6612,92.7099
980.6254,92.4996
981.5897,92.2977
982.5539,92.1084
983.5181,91.9353
984.4824,91.781
985.4466,91.6467
986.4108,91.5322
987.3751,91.436
988.3393,91.356
989.3035,91.289
990.2678,91.2312
991.2320,91.1773
992.1962,91.1219
993.1605,91.0603
994.1247,90.9906
995.0889,90.9138
996.0532,90.8337
997.0174,90.7553
997.9816,90.6828
998.9459,90.6182
999.9101,90.5611
1000.8743,90.5088
1001.8386,90.4565
1002.8028,90.3995
1003.7670,90.3351
1004.7313,90.2641
1005.6955,90.1911
1006.6597,90.1219
1007.6240,90.06
1008.5882,90.0037
1009.5524,89.9462
1010.5167,89.8784
1011.4809,89.7944
1012.4451,89.6943
1013.4094,89.5843
1014.3736,89.473
1015.3378,89.3678
1016.3021,89.2716
1017.2663,89.1836
1018.2305,89.1009
1019.1948,89.0213
1020.1590,88.9451
1021.1232,88.8746
1022.0875,88.8137
1023.0517,88.7662
1024.0160,88.7341
1024.9802,88.7163
1025.9445,88.7083
1026.9087,88.7038
1027.8729,88.6978
1028.8372,88.6894
1029.8014,88.6838
1030.7656,88.6905
1031.7299,88.7197
1032.6941,88.7784
1033.6583,88.8674
1034.6226,88.9813
1035.5868,89.1111
1036.5510,89.2475
1037.5153,89.384
1038.4795,89.5176
1039.4437,89.647
1040.4080,89.7705
1041.3722,89.8847
1042.3364,89.9853
1043.3007,90.0701
1044.2649,90.141
1045.2291,90.204
1046.1934,90.2676
1047.1576,90.3384
1048.1218,90.4191
1049.0861,90.5076
1050.0503,90.5993
1051.0145,90.6906
1051.9788,90.782
1052.9430,90.8791
1053.9072,90.9902
1054.8715,91.1225
1055.8357,91.278
1056.7999,91.4517
1057.7642,91.6335
1058.7284,91.814
1059.6926,91.9903
1060.6569,92.1686
1061.6211,92.3612
1062.5853,92.5793
1063.5496,92.8251
1064.5138,93.0882
1065.4780,93.3482
1066.4423,93.5836
1067.4065,93.7817
1068.3707,93.9437
1069.3350,94.0821
1070.2992,94.213
1071.2634,94.3494
1072.2277,94.4965
1073.1919,94.6521
1074.1561,94.8095
1075.1204,94.9614
1076.0846,95.1027
1077.0488,95.2324
1078.0131,95.3513
1078.9773,95.4608
1079.9415,95.5609
1080.9058,95.65
1081.8700,95.7268
1082.8342,95.7904
1083.7985,95.841
1084.7627,95.8787
1085.7269,95.9024
1086.6912,95.9107
1087.6554,95.9037
1088.6196,95.885
1089.5839,95.8614
1090.5481,95.84
1091.5123,95.8252
1092.4766,95.8172
1093.4408,95.8127
1094.4050,95.8093
1095.3693,95.8067
1096.3335,95.8073
1097.2977,95.8132
1098.2620,95.8229
1099.2262,95.8319
1100.1904,95.8348
1101.1547,95.8303
1102.1189,95.8225
1103.0831,95.8197
1104.0474,95.8299
1105.0116,95.8568
1105.9758,95.8981
1106.9401,95.9482
1107.9043,96.002
1108.8685,96.0571
1109.8328,96.115
1110.7970,96.1788
1111.7612,96.2512
1112.7255,96.3333
1113.6897,96.4241
1114.6539,96.521
1115.6182,96.6196
1116.5824,96.7147
1117.5466,96.8008
1118.5109,96.874
1119.4751,96.9343
1120.4393,96.9857
1121.4036,97.0354
1122.3678,97.0909
1123.3320,97.1574
1124.2963,97.2365
1125.2605,97.3265
1126.2247,97.4246
1127.1890,97.5279
1128.1532,97.6343
1129.1174,97.7427
1130.0817,97.8515
1131.0459,97.9585
1132.0101,98.0605
1132.9744,98.1535
1133.9386,98.2335
1134.9028,98.2972
1135.8671,98.3433
1136.8313,98.3721
1137.7955,98.3856
1138.7598,98.3858
1139.7240,98.3737
1140.6882,98.3495
1141.6525,98.3129
1142.6167,98.2643
1143.5809,98.2054
1144.5452,98.1395
1145.5094,98.0696
1146.4736,97.9983
1147.4379,97.9263
1148.4021,97.8531
1149.3663,97.7783
1150.3306,97.7026
1151.2948,97.6285
1152.2590,97.5603
1153.2233,97.5021
1154.1875,97.457
1155.1517,97.4259
1156.1160,97.4079
1157.0802,97.4018
1158.0444,97.407
1159.0087,97.4249
1159.9729,97.4587
1160.9371,97.5119
1161.9014,97.5873
1162.8656,97.686
1163.8298,97.8064
1164.7941,97.9444
1165.7583,98.095
1166.7225,98.2529
1167.6868,98.4143
1168.6510,98.5769
1169.6152,98.7393
1170.5795,98.8994
1171.5437,99.0538
1172.5079,99.1971
1173.4722,99.3255
1174.4364,99.47
1175.4006,99.5943
1176.3649,99.7005
1177.3291,99.7921
1178.2933,99.8716
1179.2576,99.94
1180.2218,99.9968
1181.1860,100.042
1182.1503,100.074
1183.1145,100.096
1184.0787,100.11
1185.0430,100.117
1186.0072,100.121
1186.9714,100.12
1187.9357,100.116
1188.8999,100.106
1189.8641,100.087
1190.8284,100.06
1191.7926,100.022
1192.7568,99.9742
1193.7211,99.9188
1194.6853,99.8574
1195.6495,99.7926
1196.6138,99.7274
1197.5780,99.6651
1198.5422,99.6083
1199.5065,99.5341
1200.4707,99.4936
1201.4349,99.4581
1202.3992,99.4259
1203.3634,99.3962
1204.3276,99.3692
1205.2919,99.3459
1206.2561,99.3269
1207.2203,99.3117
1208.1846,99.299
1209.1488,99.2864
1210.1130,99.271
1211.0773,99.2499
1212.0415,99.2207
1213.0057,99.1824
1213.9700,99.1359
1214.9342,99.0834
1215.8984,99.0282
1216.8627,98.973
1217.8269,98.9194
1218.7911,98.8678
1219.7554,98.8176
1220.7196,98.7682
1221.6838,98.7199
1222.6481,98.6736
1223.6123,98.6307
1224.5765,98.5922
1225.5408,98.5581
1226.5050,98.527
1227.4692,98.4969
1228.4335,98.4663
1229.3977,98.4349
1230.3619,98.4036
1231.3262,98.3737
1232.2904,98.3463
1233.2546,98.3213
1234.2189,98.2979
1235.1831,98.2762
1236.1473,98.257
1237.1116,98.2423
1238.0758,98.2335
1239.0400,98.2304
1240.0043,98.2312
1240.9685,98.2336
1241.9327,98.2367
1242.8970,98.2419
1243.8612,98.2528
1244.8254,98.2729
1245.7897,98.3037
1246.7539,98.3431
1247.7181,98.3864
1248.6824,98.4281
1249.6466,98.464
1250.6108,98.4925
1251.5751,98.5149
1252.5393,98.5338
1253.5035,98.5516
1254.4678,98.5697
1255.4320,98.5878
1256.3962,98.6054
1257.3605,98.6226
1258.3247,98.6409
1259.2889,98.6623
1260.2532,98.6884
1261.2174,98.7191
1262.1816,98.7525
1263.1459,98.7858
1264.1101,98.8164
1265.0743,98.8427
1266.0386,98.8653
1267.0028,98.8863
1267.9670,98.9088
1268.9313,98.9359
1269.8955,98.9699
1270.8597,99.0113
1271.8240,99.0592
1272.7882,99.111
1273.7524,99.1639
1274.7167,99.2157
1275.6809,99.2646
1276.6451,99.3098
1277.6094,99.351
1278.5736,99.3879
1279.5378,99.4207
1280.5021,99.4504
1281.4663,99.4783
1282.4305,99.5067
1283.3948,99.5375
1284.3590,99.5715
1285.3232,99.6078
1286.2875,99.6427
1287.2517,99.6716
1288.2159,99.6905
1289.1802,99.6983
1290.1444,99.698
1291.1086,99.6947
1292.0729,99.6833
1293.0371,99.6593
1294.0013,99.6347
1294.9656,99.6038
1295.9298,99.5619
1296.8940,99.5071
1297.8583,99.4407
1298.8225,99.366
1299.7867,99.2859
1300.7510,99.2024
1301.7152,99.1166
1302.6794,99.03
1303.6437,98.9444
1304.6079,98.8618
1305.5721,98.783
1306.5364,98.7072
1307.5006,98.6321
1308.4648,98.5554
1309.4291,98.4755
1310.3933,98.3928
1311.3575,98.3089
1312.3218,98.2269
1313.2860,98.1497
1314.2502,98.0801
1315.2145,98.0204
1316.1787,97.9731
1317.1429,97.9403
1318.1072,97.9238
1319.0714,97.9235
1320.0356,97.9369
1320.9999,97.9593
1321.9641,97.9857
1322.9283,98.0116
1323.8926,98.0341
1324.8568,98.0517
1325.8210,98.0643
1326.7853,98.0733
1327.7495,98.0813
1328.7137,98.0918
1329.6780,98.1077
1330.6422,98.1307
1331.6064,98.1605
1332.5707,98.1952
1333.5349,98.2327
1334.4991,98.2728
1335.4634,98.3179
1336.4276,98.3716
1337.3918,98.4358
1338.3561,98.5063
1339.3203,98.5736
1340.2845,98.6299
1341.2488,98.6749
1342.2130,98.7136
1343.1772,98.7502
1344.1415,98.7857
1345.1057,98.8178
1346.0699,98.8423
1347.0342,98.8548
1347.9984,98.8531
1348.9626,98.8382
1349.9269,98.8138
1350.8911,98.7845
1351.8553,98.7542
1352.8196,98.7249
1353.7838,98.6968
1354.7480,98.6683
1355.7123,98.6367
1356.6765,98.5997
1357.6407,98.5569
1358.6050,98.5106
1359.5692,98.4659
1360.5334,98.428
1361.4977,98.3985
1362.4619,98.374
1363.4261,98.3511
1364.3904,98.3292
1365.3546,98.3094
1366.3188,98.2922
1367.2831,98.2771
1368.2473,98.2639
1369.2115,98.253
1370.1758,98.2467
1371.1400,98.2499
1372.1042,98.2682
1373.0685,98.3042
1374.0327,98.3529
1374.9969,98.4035
1375.9612,98.4475
1376.9254,98.4843
1377.8896,98.5185
1378.8539,98.5546
1379.8181,98.5933
1380.7823,98.6307
1381.7466,98.6614
1382.7108,98.6819
1383.6750,98.6938
1384.6393,98.7028
1385.6035,98.7146
1386.5677,98.73
1387.5320,98.7453
1388.4962,98.7582
1389.4604,98.7696
1390.4247,98.779
1391.3889,98.7846
1392.3531,98.7842
1393.3174,98.7753
1394.2816,98.755
1395.2458,98.722
1396.2101,98.6818
1397.1743,98.6445
1398.1385,98.6174
1399.1028,98.601
1400.0670,98.5914
1401.0313,98.5841
1401.9955,98.5763
1402.9597,98.5667
1403.9240,98.5537
1404.8882,98.5339
1405.8524,98.5042
1406.8167,98.4642
1407.7809,98.4166
1408.7451,98.3643
1409.7094,98.3093
1410.6736,98.2527
1411.6378,98.1947
1412.6021,98.1347
1413.5663,98.0709
1414.5305,98.002
1415.4948,97.9304
1416.4590,97.8626
1417.4232,97.8042
1418.3875,97.7547
1419.3517,97.7131
1420.3159,97.6853
1421.2802,97.6771
1422.2444,97.6864
1423.2086,97.7072
1424.1729,97.7335
1425.1371,97.762
1426.1013,97.7931
1427.0656,97.831
1428.0298,97.8817
1428.9940,97.9463
1429.9583,98.0166
1430.9225,98.0781
1431.8867,98.1205
1432.8510,98.1453
1433.8152,98.1665
1434.7794,98.2038
1435.7437,98.2677
1436.7079,98.3463
1437.6721,98.4184
1438.6364,98.4759
1439.6006,98.5205
1440.5648,98.5529
1441.5291,98.5713
1442.4933,98.5749
1443.4575,98.5655
1444.4218,98.5465
1445.3860,98.5229
1446.3502,98.4994
1447.3145,98.4789
1448.2787,98.4625
1449.2429,98.45
1450.2072,98.4394
1451.1714,98.426
1452.1356,98.4043
1453.0999,98.376
1454.0641,98.3585
1455.0283,98.3859
1455.9926,98.4769
1456.9568,98.5791
1457.9210,98.6172
1458.8853,98.6116
1459.8495,98.611
1460.8137,98.6232
1461.7780,98.6431
1462.7422,98.6777
1463.7064,98.7396
1464.6707,98.8269
1465.6349,98.917
1466.5991,98.9871
1467.5634,99.0296
1468.5276,99.05
1469.4918,99.0655
1470.4561,99.1048
1471.4203,99.1961
1472.3845,99.3346
1473.3488,99.4683
1474.3130,99.5544
1475.2772,99.6025
1476.2415,99.6379
1477.2057,99.6721
1478.1699,99.7066
1479.1342,99.7389
1480.0984,99.766
1481.0626,99.7831
1482.0269,99.7846
1482.9911,99.7664
1483.9553,99.7286
1484.9196,99.6767
1485.8838,99.6228
1486.8480,99.5817
1487.8123,99.5602
1488.7765,99.5428
1489.7407,99.5063
1490.7050,99.4505
1491.6692,99.3903
1492.6334,99.3296
1493.5977,99.265
1494.5619,99.1973
1495.5261,99.1322
1496.4904,99.071
1497.4546,99.0042
1498.4188,98.9255
1499.3831,98.8426
1500.3473,98.7605
1501.3115,98.6727
1502.2758,98.5727
1503.2400,98.4696
1504.2042,98.4
1505.1685,98.4253
1506.1327,98.5701
1507.0969,98.7125
1508.0612,98.7122
1509.0254,98.6363
1509.9896,98.5786
1510.9539,98.5494
1511.9181,98.5342
1512.8823,98.5291
1513.8466,98.5405
1514.8108,98.5743
1515.7750,98.6256
1516.7393,98.6805
1517.7035,98.7281
1518.6677,98.771
1519.6320,98.8206
1520.5962,98.8828
1521.5604,98.9478
1522.5247,99.0001
1523.4889,99.0314
1524.4531,99.0422
1525.4174,99.0358
1526.3816,99.016
1527.3458,98.9865
1528.3101,98.9497
1529.2743,98.9079
1530.2385,98.8649
1531.2028,98.8269
1532.1670,98.7967
1533.1312,98.7666
1534.0955,98.7239
1535.0597,98.6637
1536.0239,98.5904
1536.9882,98.5214
1537.9524,98.4966
1538.9166,98.5737
1539.8809,98.76
1540.8451,98.9154
1541.8093,98.9044
1542.7736,98.7998
1543.7378,98.7062
1544.7020,98.6474
1545.6663,98.612
1546.6305,98.5868
1547.5947,98.5634
1548.5590,98.5374
1549.5232,98.5077
1550.4874,98.4744
1551.4517,98.4371
1552.4159,98.3947
1553.3801,98.3467
1554.3444,98.2992
1555.3086,98.2745
1556.2728,98.3188
1557.2371,98.47
1558.2013,98.642
1559.1655,98.6525
1560.1298,98.5396
1561.0940,98.4511
1562.0582,98.4157
1563.0225,98.4017
1563.9867,98.3834
1564.9509,98.3538
1565.9152,98.3186
1566.8794,98.2875
1567.8436,98.2633
1568.8079,98.2365
1569.7721,98.1953
1570.7363,98.1386
1571.7006,98.0728
1572.6648,98.0041
1573.6290,97.9417
1574.5933,97.8986
1575.5575,97.8778
1576.5217,97.8617
1577.4860,97.8329
1578.4502,97.7932
1579.4144,97.7472
1580.3787,97.6925
1581.3429,97.6274
1582.3071,97.5542
1583.2714,97.4772
1584.2356,97.3989
1585.1998,97.32
1586.1641,97.2412
1587.1283,97.1647
1588.0925,97.0944
1589.0568,97.034
1590.0210,96.9851
1590.9852,96.9466
1591.9495,96.9163
1592.9137,96.8929
1593.8779,96.8756
1594.8422,96.8638
1595.8064,96.8567
1596.7706,96.8532
1597.7349,96.8533
1598.6991,96.8574
1599.6633,96.8662
1600.6276,96.8798
1601.5918,96.8969
1602.5560,96.9148
1603.5203,96.9306
1604.4845,96.9432
1605.4487,96.9533
1606.4130,96.9631
1607.3772,96.9734
1608.3414,96.9809
1609.3057,96.9784
1610.2699,96.9595
1611.2341,96.9221
1612.1984,96.8701
1613.1626,96.8148
1614.1268,96.7754
1615.0911,96.77
1616.0553,96.7949
1617.0195,96.822
1617.9838,96.8307
1618.9480,96.8231
1619.9122,96.8092
1620.8765,96.7982
1621.8407,96.7977
1622.8049,96.8076
1623.7692,96.8177
1624.7334,96.8175
1625.6976,96.8072
1626.6619,96.7946
1627.6261,96.7848
1628.5903,96.7748
1629.5546,96.7556
1630.5188,96.7179
1631.4830,96.6603
1632.4473,96.5955
1633.4115,96.554
1634.3757,96.5698
1635.3400,96.6389
1636.3042,96.7031
1637.2684,96.7231
1638.2327,96.7155
1639.1969,96.7003
1640.1611,96.6788
1641.1254,96.6454
1642.0896,96.5987
1643.0538,96.549
1644.0181,96.5219
1644.9823,96.5475
1645.9465,96.6254
1646.9108,96.7017
1647.8750,96.7218
1648.8392,96.6832
1649.8035,96.6186
1650.7677,96.5812
1651.7319,96.6434
1652.6962,96.8311
1653.6604,97.0285
1654.6246,97.1269
1655.5889,97.1664
1656.5531,97.1939
1657.5173,97.2152
1658.4816,97.2311
1659.4458,97.2541
1660.4100,97.3035
1661.3743,97.3861
1662.3385,97.4835
1663.3027,97.5655
1664.2670,97.6172
1665.2312,97.6445
1666.1954,97.6671
1667.1597,97.7127
1668.1239,97.805
1669.0881,97.9388
1670.0524,98.0714
1671.0166,98.1619
1671.9808,98.2093
1672.9451,98.2402
1673.9093,98.2813
1674.8735,98.3452
1675.8378,98.4253
1676.8020,98.5031
1677.7662,98.5617
1678.7305,98.593
1679.6947,98.6004
1680.6589,98.6033
1681.6232,98.6389
1682.5874,98.7415
1683.5516,98.893
1684.5159,99.021
1685.4801,99.0961
1686.4443,99.1474
1687.4086,99.1975
1688.3728,99.2468
1689.3370,99.2871
1690.3013,99.3109
1691.2655,99.3157
1692.2297,99.3071
1693.1940,99.2981
1694.1582,99.306
1695.1224,99.3443
1696.0867,99.4135
1697.0509,99.4981
1698.0151,99.5766
1698.9794,99.6385
1699.9436,99.6905
1700.9078,99.7446
1701.8721,99.8049
1702.8363,99.8671
1703.8005,99.9254
1704.7648,99.9762
1705.7290,100.016
1706.6932,100.041
1707.6575,100.049
1708.6217,100.043
1709.5859,100.027
1710.5502,100.001
1711.5144,99.9667
1712.4786,99.9292
1713.4429,99.8988
1714.4071,99.8921
1715.3713,99.9201
1716.3356,99.9645
1717.2998,99.9831
1718.2640,99.9659
1719.2283,99.9404
1720.1925,99.9241
1721.1567,99.9134
1722.1210,99.8998
1723.0852,99.8788
1724.0494,99.8507
1725.0137,99.8183
1725.9779,99.7844
1726.9421,99.75
1727.9064,99.7132
1728.8706,99.6721
1729.8348,99.6303
1730.7991,99.6003
1731.7633,99.6
1732.7275,99.635
1733.6918,99.6846
1734.6560,99.7238
1735.6202,99.7502
1736.5845,99.7724
1737.5487,99.7957
1738.5129,99.8233
1739.4772,99.8573
1740.4414,99.8945
1741.4056,99.9261
1742.3699,99.9446
1743.3341,99.9491
1744.2983,99.9433
1745.2626,99.933
1746.2268,99.9252
1747.1910,99.9281
1748.1553,99.9463
1749.1195,99.9747
1750.0837,100.001
1751.0480,100.018
1752.0122,100.029
1752.9764,100.039
1753.9407,100.049
1754.9049,100.059
1755.8691,100.069
1756.8334,100.076
1757.7976,100.078
1758.7618,100.077
1759.7261,100.076
1760.6903,100.08
1761.6545,100.088
1762.6188,100.095
1763.5830,100.095
1764.5472,100.086
1765.5115,100.069
1766.4757,100.049
1767.4399,100.031
1768.4042,100.024
1769.3684,100.033
1770.3326,100.06
1771.2969,100.097
1772.2611,100.126
1773.2253,100.135
1774.1896,100.127
1775.1538,100.119
1776.1180,100.112
1777.0823,100.108
1778.0465,100.109
1779.0107,100.116
1779.9750,100.126
1780.9392,100.133
1781.9034,100.136
1782.8677,100.136
1783.8319,100.139
1784.7961,100.142
1785.7604,100.143
1786.7246,100.134
1787.6888,100.114
1788.6531,100.088
1789.6173,100.068
1790.5815,100.07
1791.5458,100.096
1792.5100,100.13
1793.4742,100.153
1794.4385,100.159
1795.4027,100.153
1796.3669,100.142
1797.3312,100.132
1798.2954,100.131
1799.2596,100.142
1800.2239,100.162
1801.1881,100.182
1802.1523,100.196
1803.1166,100.2
1804.0808,100.195
1805.0450,100.183
1806.0093,100.167
1806.9735,100.153
1807.9377,100.146
1808.9020,100.15
1809.8662,100.163
1810.8304,100.178
1811.7947,100.189
1812.7589,100.193
1813.7231,100.19
1814.6874,100.186
1815.6516,100.183
1816.6158,100.183
1817.5801,100.183
1818.5443,100.179
1819.5085,100.168
1820.4728,100.151
1821.4370,100.133
1822.4012,100.117
1823.3655,100.109
1824.3297,100.107
1825.2939,100.108
1826.2582,100.113
1827.2224,100.122
1828.1866,100.139
1829.1509,100.162
1830.1151,100.182
1831.0793,100.193
1832.0436,100.193
1833.0078,100.188
1833.9720,100.182
1834.9363,100.18
1835.9005,100.182
1836.8647,100.182
1837.8290,100.175
1838.7932,100.155
1839.7574,100.125
1840.7217,100.095
1841.6859,100.079
1842.6501,100.087
1843.6144,100.12
1844.5786,100.16
1845.5428,100.189
1846.5071,100.201
1847.4713,100.201
1848.4355,100.195
1849.3998,100.189
1850.3640,100.185
1851.3282,100.183
1852.2925,100.183
1853.2567,100.183
1854.2209,100.183
1855.1852,100.181
1856.1494,100.179
1857.1136,100.176
1858.0779,100.172
1859.0421,100.169
1860.0063,100.166
1860.9706,100.163
1861.9348,100.158
1862.8990,100.15
1863.8633,100.138
1864.8275,100.127
1865.7917,100.123
1866.7560,100.133
1867.7202,100.158
1868.6844,100.185
1869.6487,100.203
1870.6129,100.21
1871.5771,100.209
1872.5414,100.205
1873.5056,100.202
1874.4698,100.2
1875.4341,100.201
1876.3983,100.201
1877.3625,100.199
1878.3268,100.195
1879.2910,100.191
1880.2552,100.189
1881.2195,100.19
1882.1837,100.192
1883.1479,100.191
1884.1122,100.186
1885.0764,100.178
1886.0406,100.171
1887.0049,100.172
1887.9691,100.181
1888.9333,100.197
1889.8976,100.211
1890.8618,100.217
1891.8260,100.216
1892.7903,100.211
1893.7545,100.208
1894.7188,100.207
1895.6830,100.208
1896.6472,100.209
1897.6115,100.207
1898.5757,100.203
1899.5399,100.198
1900.5042,100.197
1901.4684,100.199
1902.4326,100.203
1903.3969,100.207
1904.3611,100.208
1905.3253,100.207
1906.2896,100.206
1907.2538,100.207
1908.2180,100.213
1909.1823,100.221
1910.1465,100.227
1911.1107,100.228
1912.0750,100.221
1913.0392,100.207
1914.0034,100.19
1914.9677,100.176
1915.9319,100.169
1916.8961,100.171
1917.8604,100.179
1918.8246,100.189
1919.7888,100.2
1920.7531,100.212
1921.7173,100.226
1922.6815,100.24
1923.6458,100.251
1924.6100,100.254
1925.5742,100.248
1926.5385,100.238
1927.5027,100.227
1928.4669,100.219
1929.4312,100.214
1930.3954,100.214
1931.3596,100.214
1932.3239,100.215
1933.2881,100.216
1934.2523,100.217
1935.2166,100.217
1936.1808,100.215
1937.1450,100.209
1938.1093,100.202
1939.0735,100.196
1940.0377,100.194
1941.0020,100.199
1941.9662,100.209
1942.9304,100.219
1943.8947,100.225
1944.8589,100.226
1945.8231,100.223
1946.7874,100.219
1947.7516,100.216
1948.7158,100.214
1949.6801,100.213
1950.6443,100.212
1951.6085,100.211
1952.5728,100.212
1953.5370,100.213
1954.5012,100.214
1955.4655,100.214
1956.4297,100.214
1957.3939,100.213
1958.3582,100.212
1959.3224,100.213
1960.2866,100.212
1961.2509,100.21
1962.2151,100.205
1963.1793,100.2
1964.1436,100.198
1965.1078,100.2
1966.0720,100.205
1967.0363,100.211
1968.0005,100.214
1968.9647,100.213
1969.9290,100.21
1970.8932,100.207
1971.8574,100.206
1972.8217,100.206
1973.7859,100.207
1974.7501,100.206
1975.7144,100.203
1976.6786,100.199
1977.6428,100.196
1978.6071,100.195
1979.5713,100.195
1980.5355,100.195
1981.4998,100.194
1982.4640,100.192
1983.4282,100.191
1984.3925,100.191
1985.3567,100.191
1986.3209,100.192
1987.2852,100.193
1988.2494,100.193
1989.2136,100.193
1990.1779,100.194
1991.1421,100.195
1992.1063,100.196
1993.0706,100.196
1994.0348,100.195
1994.9990,100.194
1995.9633,100.193
1996.9275,100.193
1997.8917,100.194
1998.8560,100.195
1999.8202,100.195
2000.7844,100.195
2001.7487,100.192
2002.7129,100.187
2003.6771,100.181
2004.6414,100.175
2005.6056,100.17
2006.5698,100.168
2007.5341,100.166
2008.4983,100.165
2009.4625,100.164
2010.4268,100.16
2011.3910,100.156
2012.3552,100.152
2013.3195,100.151
2014.2837,100.153
2015.2479,100.159
2016.2122,100.167
2017.1764,100.173
2018.1406,100.174
2019.1049,100.171
2020.0691,100.164
2021.0333,100.156
2021.9976,100.151
2022.9618,100.149
2023.9260,100.15
2024.8903,100.153
2025.8545,100.155
2026.8187,100.155
2027.7830,100.153
2028.7472,100.15
2029.7114,100.148
2030.6757,100.145
2031.6399,100.143
2032.6041,100.14
2033.5684,100.138
2034.5326,100.136
2035.4968,100.135
2036.4611,100.135
2037.4253,100.135
2038.3895,100.136
2039.3538,100.135
2040.3180,100.134
2041.2822,100.133
2042.2465,100.132
2043.2107,100.133
2044.1749,100.133
2045.1392,100.133
2046.1034,100.132
2047.0676,100.129
2048.0320,100.126
2048.9961,100.123
2049.9604,100.122
2050.9246,100.122
2051.8889,100.122
2052.8530,100.121
2053.8174,100.119
2054.7815,100.115
2055.7458,100.11
2056.7100,100.107
2057.6743,100.105
2058.6384,100.105
2059.6028,100.106
2060.5669,100.106
2061.5313,100.106
2062.4954,100.105
2063.4597,100.103
2064.4238,100.1
2065.3882,100.095
2066.3523,100.09
2067.3167,100.085
2068.2808,100.082
2069.2451,100.081
2070.2092,100.084
2071.1736,100.088
2072.1377,100.093
2073.1021,100.098
2074.0662,100.101
2075.0305,100.102
2075.9946,100.1
2076.9590,100.096
2077.9231,100.09
2078.8875,100.081
2079.8516,100.071
2080.8159,100.062
2081.7800,100.057
2082.7444,100.057
2083.7085,100.062
2084.6729,100.071
2085.6370,100.08
2086.6013,100.087
2087.5654,100.091
2088.5298,100.09
2089.4939,100.087
2090.4583,100.082
2091.4224,100.078
2092.3867,100.074
2093.3508,100.071
2094.3152,100.069
2095.2793,100.068
2096.2437,100.067
2097.2078,100.067
2098.1721,100.065
2099.1362,100.063
2100.1006,100.06
2101.0647,100.059
2102.0291,100.061
2102.9932,100.063
2103.9575,100.066
2104.9216,100.066
2105.8860,100.063
2106.8501,100.059
2107.8145,100.057
2108.7786,100.058
2109.7429,100.061
2110.7070,100.065
2111.6714,100.065
2112.6355,100.062
2113.5999,100.055
2114.5640,100.047
2115.5283,100.04
2116.4924,100.036
2117.4568,100.035
2118.4209,100.036
2119.3853,100.038
2120.3494,100.041
2121.3137,100.044
2122.2778,100.044
2123.2422,100.043
2124.2063,100.04
2125.1707,100.037
2126.1348,100.035
2127.0991,100.034
2128.0632,100.033
2129.0276,100.032
2129.9917,100.032
2130.9561,100.031
2131.9202,100.031
2132.8845,100.034
2133.8486,100.04
2134.8130,100.047
2135.7771,100.053
2136.7415,100.057
2137.7056,100.056
2138.6699,100.052
2139.6340,100.045
2140.5984,100.037
2141.5625,100.031
2142.5269,100.028
2143.4910,100.028
2144.4553,100.03
2145.4194,100.034
2146.3838,100.04
2147.3479,100.047
2148.3123,100.055
2149.2764,100.061
2150.2407,100.064
2151.2048,100.064
2152.1692,100.059
2153.1333,100.052
2154.0977,100.044
2155.0618,100.037
2156.0261,100.033
2156.9902,100.032
2157.9546,100.033
2158.9187,100.037
2159.8831,100.043
2160.8472,100.049
2161.8115,100.054
2162.7756,100.057
2163.7400,100.059
2164.7041,100.059
2165.6685,100.059
2166.6326,100.058
2167.5969,100.057
2168.5610,100.055
2169.5254,100.052
2170.4895,100.05
2171.4539,100.048
2172.4180,100.05
2173.3823,100.054
2174.3464,100.06
2175.3108,100.066
2176.2749,100.071
2177.2393,100.074
2178.2034,100.075
2179.1677,100.074
2180.1318,100.074
2181.0962,100.073
2182.0603,100.074
2183.0247,100.076
2183.9888,100.078
2184.9531,100.08
2185.9172,100.08
2186.8816,100.08
2187.8457,100.078
2188.8101,100.077
2189.7742,100.077
2190.7385,100.079
2191.7026,100.083
2192.6670,100.087
2193.6311,100.091
2194.5955,100.092
2195.5596,100.09
2196.5239,100.086
2197.4880,100.082
2198.4524,100.079
2199.4165,100.078
2200.3809,100.079
2201.3450,100.082
2202.3093,100.087
2203.2734,100.092
2204.2378,100.095
2205.2019,100.095
2206.1663,100.094
2207.1304,100.091
2208.0947,100.09
2209.0588,100.091
2210.0232,100.095
2210.9873,100.1
2211.9517,100.103
2212.9158,100.102
2213.8801,100.098
2214.8442,100.092
2215.8086,100.084
2216.7727,100.079
2217.7371,100.078
2218.7012,100.081
2219.6655,100.087
2220.6296,100.095
2221.5940,100.102
2222.5581,100.104
2223.5225,100.101
2224.4866,100.095
2225.4509,100.087
2226.4150,100.082
2227.3794,100.079
2228.3435,100.08
2229.3079,100.083
2230.2720,100.086
2231.2363,100.088
2232.2004,100.09
2233.1648,100.091
2234.1289,100.092
2235.0933,100.093
2236.0574,100.091
2237.0217,100.087
2237.9858,100.082
2238.9502,100.075
2239.9143,100.07
2240.8787,100.067
2241.8428,100.063
2242.8071,100.06
2243.7712,100.057
2244.7356,100.053
2245.6997,100.051
2246.6641,100.05
2247.6282,100.049
2248.5925,100.049
2249.5566,100.046
2250.5210,100.042
2251.4851,100.036
2252.4495,100.028
2253.4136,100.019
2254.3779,100.009
2255.3420,99.9992
2256.3064,99.9912
2257.2705,99.9857
2258.2349,99.983
2259.1990,99.982
2260.1633,99.9811
2261.1274,99.9787
2262.0918,99.9742
2263.0559,99.9686
2264.0203,99.9636
2264.9844,99.9608
2265.9487,99.9607
2266.9128,99.962
2267.8772,99.9629
2268.8413,99.9612
2269.8057,99.9557
2270.7698,99.9469
2271.7341,99.9365
2272.6982,99.9272
2273.6626,99.9217
2274.6267,99.9217
2275.5911,99.9275
2276.5552,99.9375
2277.5195,99.949
2278.4836,99.959
2279.4480,99.9555
2280.4121,99.9467
2281.3765,99.9323
2282.3406,99.9122
2283.3049,99.887
2284.2690,99.8572
2285.2334,99.8234
2286.1975,99.7866
2287.1619,99.7475
2288.1260,99.7062
2289.0903,99.6628
2290.0544,99.6172
2291.0188,99.5695
2291.9829,99.5207
2292.9473,99.472
2293.9114,99.4248
2294.8757,99.3791
2295.8398,99.3344
2296.8042,99.2892
2297.7683,99.2424
2298.7327,99.193
2299.6968,99.1407
2300.6611,99.0845
2301.6252,99.0226
2302.5896,98.9523
2303.5537,98.8717
2304.5181,98.7811
2305.4822,98.6835
2306.4465,98.5845
2307.4106,98.4903
2308.3750,98.4056
2309.3391,98.3318
2310.3035,98.2663
2311.2676,98.2039
2312.2319,98.1385
2313.1960,98.0649
2314.1604,97.9808
2315.1245,97.8867
2316.0889,97.7866
2317.0530,97.6867
2318.0173,97.5947
2318.9814,97.5173
2319.9458,97.4574
2320.9099,97.4143
2321.8743,97.3849
2322.8384,97.3668
2323.8027,97.3592
2324.7668,97.3618
2325.7312,97.3723
2326.6953,97.3857
2327.6597,97.3958
2328.6238,97.398
2329.5881,97.392
2330.5522,97.3815
2331.5166,97.3726
2332.4807,97.3695
2333.4451,97.373
2334.4092,97.382
2335.3735,97.3959
2336.3376,97.4148
2337.3020,97.4375
2338.2661,97.4607
2339.2305,97.4816
2340.1946,97.4997
2341.1589,97.5138
2342.1230,97.5133
2343.0874,97.4811
2344.0515,97.419
2345.0159,97.3594
2345.9800,97.3286
2346.9443,97.3165
2347.9084,97.2912
2348.8728,97.2303
2349.8369,97.1402
2350.8013,97.0601
2351.7654,97.053
2352.7297,97.1771
2353.6938,97.4456
2354.6582,97.8132
2355.6223,98.2201
2356.5867,98.6416
2357.5508,99.0724
2358.5151,99.4757
2359.4792,99.7743
2360.4436,99.9004
2361.4077,99.8417
2362.3721,99.6342
2363.3362,99.3276
2364.3005,98.9664
2365.2646,98.5875
2366.2290,98.2447
2367.1931,97.9566
2368.1575,97.7168
2369.1216,97.5359
2370.0859,97.4207
2371.0500,97.3734
2372.0144,97.3907
2372.9785,97.4648
2373.9429,97.5855
2374.9070,97.7427
2375.8713,97.9269
2376.8354,98.1296
2377.7998,98.3435
2378.7639,98.5615
2379.7283,98.7767
2380.6924,98.9824
2381.6567,99.1729
2382.6208,99.3439
2383.5852,99.4931
2384.5493,99.6205
2385.5137,99.7277
2386.4778,99.8169
2387.4421,99.8905
2388.4063,99.9506
2389.3706,99.9998
2390.3347,100.041
2391.2991,100.063
2392.2632,100.063
2393.2275,100.066
2394.1917,100.073
2395.1560,100.083
2396.1201,100.095
2397.0845,100.103
2398.0486,100.107
2399.0129,100.105
2399.9771,100.099
2400.9414,100.092
2401.9055,100.087
2402.8699,100.086
2403.8340,100.088
2404.7983,100.092
2405.7625,100.095
2406.7268,100.097
2407.6909,100.098
2408.6553,100.098
2409.6194,100.096
2410.5837,100.093
2411.5479,100.088
2412.5122,100.084
2413.4763,100.081
2414.4407,100.08
2415.4048,100.081
2416.3691,100.083
2417.3333,100.084
2418.2976,100.084
2419.2617,100.084
2420.2261,100.085
2421.1902,100.088
2422.1545,100.091
2423.1187,100.091
2424.0830,100.09
2425.0471,100.087
2426.0115,100.084
2426.9756,100.083
2427.9399,100.085
2428.9041,100.086
2429.8684,100.087
2430.8325,100.085
2431.7969,100.082
2432.7610,100.079
2433.7253,100.076
2434.6895,100.073
2435.6538,100.071
2436.6179,100.068
2437.5823,100.064
2438.5464,100.06
2439.5107,100.059
2440.4749,100.06
2441.4392,100.064
2442.4033,100.071
2443.3677,100.077
2444.3318,100.083
2445.2961,100.085
2446.2603,100.085
2447.2246,100.083
2448.1887,100.079
2449.1531,100.075
2450.1172,100.072
2451.0815,100.069
2452.0457,100.068
2453.0100,100.066
2453.9741,100.064
2454.9385,100.062
2455.9026,100.061
2456.8669,100.062
2457.8311,100.064
2458.7954,100.066
2459.7595,100.068
2460.7239,100.068
2461.6880,100.067
2462.6523,100.065
2463.6165,100.063
2464.5808,100.064
2465.5449,100.066
2466.5093,100.07
2467.4734,100.074
2468.4377,100.077
2469.4019,100.077
2470.3662,100.077
2471.3303,100.075
2472.2947,100.073
2473.2588,100.072
2474.2231,100.073
2475.1873,100.077
2476.1516,100.082
2477.1157,100.087
2478.0801,100.088
2479.0442,100.087
2480.0085,100.083
2480.9727,100.079
2481.9370,100.076
2482.9011,100.077
2483.8655,100.08
2484.8296,100.084
2485.7939,100.088
2486.7581,100.091
2487.7224,100.09
2488.6865,100.088
2489.6509,100.085
2490.6150,100.082
2491.5793,100.078
2492.5435,100.075
2493.5078,100.071
2494.4719,100.067
2495.4363,100.064
2496.4004,100.062
2497.3647,100.061
2498.3289,100.062
2499.2932,100.065
2500.2573,100.069
2501.2217,100.073
2502.1858,100.076
2503.1501,100.075
2504.1143,100.071
2505.0786,100.065
2506.0427,100.059
2507.0071,100.056
2507.9712,100.057
2508.9355,100.063
2509.8997,100.069
2510.8640,100.073
2511.8281,100.074
2512.7925,100.073
2513.7566,100.071
2514.7209,100.07
2515.6851,100.069
2516.6494,100.069
2517.6135,100.07
2518.5779,100.072
2519.5420,100.076
2520.5063,100.083
2521.4705,100.089
2522.4348,100.092
2523.3989,100.089
2524.3633,100.082
2525.3274,100.072
2526.2917,100.065
2527.2559,100.063
2528.2202,100.068
2529.1843,100.077
2530.1487,100.089
2531.1128,100.098
2532.0771,100.104
2533.0413,100.106
2534.0056,100.104
2534.9697,100.1
2535.9341,100.097
2536.8982,100.095
2537.8625,100.095
2538.8267,100.096
2539.7910,100.097
2540.7551,100.097
2541.7195,100.097
2542.6836,100.097
2543.6479,100.097
2544.6121,100.099
2545.5764,100.102
2546.5405,100.105
2547.5049,100.109
2548.4690,100.113
2549.4333,100.114
2550.3975,100.113
2551.3618,100.109
2552.3259,100.103
2553.2903,100.096
2554.2544,100.09
2555.2188,100.087
2556.1829,100.087
2557.1472,100.089
2558.1113,100.093
2559.0757,100.096
2560.0398,100.1
2561.0042,100.104
2561.9683,100.107
2562.9326,100.108
2563.8967,100.107
2564.8611,100.103
2565.8252,100.098
2566.7896,100.095
2567.7537,100.094
2568.7180,100.097
2569.6821,100.102
2570.6465,100.107
2571.6106,100.11
2572.5750,100.11
2573.5391,100.11
2574.5034,100.11
2575.4675,100.111
2576.4319,100.112
2577.3960,100.112
2578.3604,100.109
2579.3245,100.104
2580.2888,100.097
2581.2529,100.091
2582.2173,100.088
2583.1814,100.088
2584.1458,100.09
2585.1099,100.094
2586.0742,100.096
2587.0383,100.097
2588.0027,100.095
2588.9668,100.092
2589.9312,100.09
2590.8953,100.091
2591.8596,100.094
2592.8237,100.1
2593.7881,100.104
2594.7522,100.105
2595.7166,100.103
2596.6807,100.1
2597.6450,100.099
2598.6091,100.1
2599.5735,100.104
2600.5376,100.108
2601.5020,100.11
2602.4661,100.11
2603.4304,100.106
2604.3945,100.1
2605.3589,100.093
2606.3230,100.086
2607.2874,100.08
2608.2515,100.076
2609.2158,100.076
2610.1799,100.078
2611.1443,100.083
2612.1084,100.087
2613.0728,100.087
2614.0369,100.082
2615.0012,100.074
2615.9653,100.065
2616.9297,100.059
2617.8938,100.059
2618.8582,100.063
2619.8223,100.068
2620.7866,100.072
2621.7507,100.072
2622.7151,100.071
2623.6792,100.068
2624.6436,100.064
2625.6077,100.059
2626.5720,100.052
2627.5361,100.043
2628.5005,100.033
2629.4646,100.026
2630.4290,100.021
2631.3931,100.02
2632.3574,100.02
2633.3215,100.021
2634.2859,100.021
2635.2500,100.021
2636.2144,100.022
2637.1785,100.025
2638.1428,100.03
2639.1069,100.035
2640.0713,100.039
2641.0354,100.041
2641.9998,100.039
2642.9639,100.032
2643.9282,100.023
2644.8923,100.013
2645.8567,100.005
2646.8208,100.001
2647.7852,100.001
2648.7493,100.002
2649.7136,100.002
2650.6777,100.001
2651.6421,99.9974
2652.6062,99.9922
2653.5706,99.9861
2654.5347,99.9798
2655.4990,99.9734
2656.4631,99.9674
2657.4275,99.9627
2658.3916,99.9605
2659.3560,99.9613
2660.3201,99.9644
2661.2844,99.9679
2662.2485,99.9693
2663.2129,99.9669
2664.1770,99.9604
2665.1414,99.9515
2666.1055,99.943
2667.0698,99.9374
2668.0339,99.9355
2668.9983,99.9366
2669.9624,99.9383
2670.9268,99.938
2671.8909,99.9345
2672.8552,99.928
2673.8193,99.92
2674.7837,99.9123
2675.7478,99.9058
2676.7122,99.9007
2677.6763,99.8962
2678.6406,99.892
2679.6047,99.8885
2680.5691,99.8862
2681.5332,99.8853
2682.4976,99.8851
2683.4617,99.8842
2684.4260,99.8813
2685.3901,99.8763
2686.3545,99.8701
2687.3186,99.8643
2688.2830,99.8597
2689.2471,99.8562
2690.2114,99.8528
2691.1755,99.8485
2692.1399,99.8431
2693.1040,99.8373
2694.0684,99.8321
2695.0325,99.8281
2695.9968,99.8251
2696.9609,99.8225
2697.9253,99.8195
2698.8894,99.8164
2699.8538,99.8136
2700.8179,99.8122
2701.7822,99.8126
2702.7463,99.8142
2703.7107,99.8156
2704.6748,99.8148
2705.6392,99.8106
2706.6033,99.8028
2707.5676,99.7926
2708.5317,99.782
2709.4961,99.7729
2710.4602,99.7669
2711.4246,99.7644
2712.3887,99.7652
2713.3530,99.7683
2714.3171,99.7722
2715.2815,99.7753
2716.2456,99.7761
2717.2100,99.7736
2718.1741,99.768
2719.1384,99.7603
2720.1025,99.752
2721.0669,99.744
2722.0310,99.7368
2722.9954,99.7301
2723.9595,99.7236
2724.9238,99.7174
2725.8879,99.7122
2726.8523,99.7083
2727.8164,99.7053
2728.7808,99.7025
2729.7449,99.6989
2730.7092,99.6943
2731.6733,99.6892
2732.6377,99.6845
2733.6018,99.681
2734.5662,99.6787
2735.5303,99.677
2736.4946,99.6754
2737.4587,99.6733
2738.4231,99.6702
2739.3872,99.6661
2740.3516,99.6612
2741.3157,99.6562
2742.2800,99.6524
2743.2441,99.6515
2744.2085,99.6539
2745.1726,99.6587
2746.1370,99.6631
2747.1011,99.6641
2748.0654,99.6601
2749.0295,99.6521
2749.9939,99.6431
2750.9580,99.6365
2751.9224,99.6338
2752.8865,99.6339
2753.8508,99.634
2754.8149,99.6318
2755.7793,99.6268
2756.7434,99.6209
2757.7078,99.6166
2758.6719,99.6154
2759.6362,99.6169
2760.6003,99.619
2761.5647,99.6191
2762.5288,99.616
2763.4932,99.61
2764.4573,99.6028
2765.4216,99.5969
2766.3857,99.5939
2767.3501,99.5946
2768.3142,99.5978
2769.2786,99.601
2770.2427,99.601
2771.2070,99.5955
2772.1711,99.5839
2773.1355,99.568
2774.0996,99.5512
2775.0640,99.5372
2776.0281,99.5283
2776.9924,99.525
2777.9565,99.5256
2778.9209,99.5278
2779.8850,99.53
2780.8494,99.5317
2781.8135,99.5335
2782.7778,99.5364
2783.7419,99.54
2784.7063,99.5428
2785.6704,99.5421
2786.6348,99.5356
2787.5989,99.523
2788.5632,99.5061
2789.5273,99.4889
2790.4917,99.4752
2791.4558,99.4672
2792.4202,99.4653
2793.3843,99.4677
2794.3486,99.4723
2795.3127,99.477
2796.2771,99.4801
2797.2412,99.4803
2798.2056,99.4767
2799.1697,99.469
2800.1340,99.4576
2801.0981,99.4446
2802.0625,99.4323
2803.0266,99.4232
2803.9910,99.4185
2804.9551,99.4179
2805.9194,99.4192
2806.8835,99.4194
2807.8479,99.4157
2808.8120,99.4064
2809.7764,99.392
2810.7405,99.3751
2811.7048,99.3597
2812.6689,99.3491
2813.6333,99.3441
2814.5974,99.3429
2815.5618,99.3417
2816.5259,99.3371
2817.4902,99.328
2818.4543,99.3161
2819.4187,99.3047
2820.3828,99.2963
2821.3472,99.2914
2822.3113,99.2882
2823.2756,99.2839
2824.2397,99.2767
2825.2041,99.2665
2826.1682,99.2547
2827.1326,99.2432
2828.0967,99.233
2829.0610,99.224
2830.0251,99.2154
2830.9895,99.2058
2831.9536,99.1949
2832.9180,99.1834
2833.8821,99.1732
2834.8464,99.1669
2835.8105,99.1665
2836.7749,99.1726
2837.7390,99.1842
2838.7034,99.1993
2839.6675,99.2165
2840.6318,99.2356
2841.5959,99.2583
2842.5603,99.2878
2843.5244,99.3271
2844.4888,99.3779
2845.4529,99.4404
2846.4172,99.5124
2847.3813,99.5897
2848.3457,99.6664
2849.3098,99.7352
2850.2742,99.789
2851.2383,99.8227
2852.2026,99.8341
2853.1667,99.8159
2854.1311,99.7809
2855.0952,99.7359
2856.0596,99.6859
2857.0237,99.634
2857.9880,99.581
2858.9521,99.5264
2859.9165,99.4697
2860.8806,99.4111
2861.8450,99.3522
2862.8091,99.2954
2863.7734,99.2434
2864.7375,99.1985
2865.7019,99.1619
2866.6660,99.1339
2867.6304,99.1132
2868.5945,99.0967
2869.5588,99.0805
2870.5229,99.0603
2871.4873,99.0335
2872.4514,99.0001
2873.4158,98.9633
2874.3799,98.9284
2875.3442,98.9005
2876.3083,98.8823
2877.2727,98.8736
2878.2368,98.8718
2879.2012,98.873
2880.1653,98.8739
2881.1296,98.8728
2882.0938,98.8695
2883.0581,98.8654
2884.0222,98.862
2884.9866,98.8607
2885.9507,98.8618
2886.9150,98.8644
2887.8792,98.8671
2888.8435,98.8689
2889.8076,98.8697
2890.7720,98.8704
2891.7361,98.8726
2892.7004,98.8772
2893.6646,98.8845
2894.6289,98.8948
2895.5930,98.9088
2896.5574,98.9276
2897.5215,98.9512
2898.4858,98.9776
2899.4500,99.0026
2900.4143,99.021
2901.3784,99.0291
2902.3428,99.0275
2903.3069,99.0207
2904.2712,99.0157
2905.2354,99.0195
2906.1997,99.0368
2907.1638,99.0688
2908.1282,99.1137
2909.0923,99.1677
2910.0566,99.2262
2911.0208,99.2857
2911.9851,99.3438
2912.9492,99.4007
2913.9136,99.4573
2914.8777,99.5149
2915.8420,99.5737
2916.8062,99.632
2917.7705,99.6866
2918.7346,99.7391
2919.6990,99.7863
2920.6631,99.8227
2921.6274,99.8489
2922.5916,99.866
2923.5559,99.8751
2924.5200,99.8759
2925.4844,99.8669
2926.4485,99.8459
2927.4128,99.8116
2928.3770,99.7646
2929.3413,99.7079
2930.3054,99.6465
2931.2698,99.5852
2932.2339,99.528
2933.1982,99.4762
2934.1624,99.43
2935.1267,99.3882
2936.0908,99.3502
2937.0552,99.3157
2938.0193,99.2844
2938.9836,99.2562
2939.9478,99.2308
2940.9121,99.2081
2941.8762,99.1885
2942.8406,99.173
2943.8047,99.1631
2944.7690,99.1602
2945.7332,99.1649
2946.6975,99.1766
2947.6616,99.1943
2948.6260,99.2163
2949.5901,99.2418
2950.5544,99.2701
2951.5186,99.3008
2952.4829,99.333
2953.4470,99.3643
2954.4114,99.3922
2955.3755,99.4143
2956.3398,99.4303
2957.3040,99.4416
2958.2683,99.4504
2959.2324,99.4583
2960.1968,99.4654
2961.1609,99.4709
2962.1252,99.4743
2963.0894,99.4757
2964.0537,99.4759
2965.0178,99.4753
2965.9822,99.4729
2966.9463,99.4674
2967.9106,99.4581
2968.8748,99.4468
2969.8391,99.4364
2970.8032,99.4296
2971.7676,99.4273
2972.7317,99.4279
2973.6960,99.4286
2974.6602,99.4277
2975.6245,99.4253
2976.5886,99.4227
2977.5530,99.4208
2978.5171,99.4192
2979.4814,99.4163
2980.4456,99.4111
2981.4099,99.4043
2982.3740,99.3987
2983.3384,99.3975
2984.3025,99.4027
2985.2668,99.4134
2986.2310,99.4255
2987.1953,99.4332
2988.1594,99.4302
2989.1238,99.4102
2990.0879,99.3784
2991.0522,99.3394
2992.0164,99.2998
2992.9807,99.2653
2993.9448,99.2387
2994.9092,99.2186
2995.8733,99.2008
2996.8376,99.1808
2997.8018,99.1571
2998.7661,99.1316
2999.7302,99.1084
3000.6946,99.0906
3001.6587,99.0776
3002.6230,99.0648
3003.5872,99.0462
3004.5515,99.0184
3005.5156,98.9821
3006.4800,98.9423
3007.4441,98.9047
3008.4084,98.8733
3009.3726,98.8482
3010.3369,98.8271
3011.3010,98.8068
3012.2654,98.785
3013.2295,98.7607
3014.1938,98.7336
3015.1580,98.7039
3016.1223,98.6723
3017.0864,98.6403
3018.0508,98.6098
3019.0149,98.5822
3019.9792,98.5576
3020.9434,98.5345
3021.9077,98.511
3022.8718,98.486
3023.8362,98.4606
3024.8003,98.4369
3025.7646,98.4171
3026.7288,98.4018
3027.6931,98.3896
3028.6572,98.3775
3029.6216,98.3623
3030.5857,98.3415
3031.5500,98.3143
3032.5142,98.2822
3033.4785,98.2484
3034.4426,98.2171
3035.4070,98.1921
3036.3711,98.1749
3037.3354,98.1642
3038.2996,98.1566
3039.2639,98.1476
3040.2280,98.1341
3041.1924,98.1158
3042.1565,98.0948
3043.1208,98.0738
3044.0850,98.0547
3045.0493,98.0374
3046.0134,98.0208
3046.9778,98.0037
3047.9419,97.986
3048.9063,97.9683
3049.8704,97.9513
3050.8347,97.9347
3051.7988,97.918
3052.7632,97.9009
3053.7273,97.8845
3054.6917,97.8709
3055.6558,97.8612
3056.6201,97.8546
3057.5842,97.8478
3058.5486,97.8374
3059.5127,97.8217
3060.4771,97.8025
3061.4412,97.7835
3062.4055,97.7681
3063.3696,97.7573
3064.3340,97.7483
3065.2981,97.7367
3066.2625,97.7192
3067.2266,97.6957
3068.1909,97.6691
3069.1550,97.6436
3070.1194,97.6223
3071.0835,97.6061
3072.0479,97.5942
3073.0120,97.5851
3073.9763,97.5782
3074.9404,97.573
3075.9048,97.5692
3076.8689,97.566
3077.8333,97.5617
3078.7974,97.5548
3079.7617,97.5449
3080.7258,97.5329
3081.6902,97.5203
3082.6543,97.5087
3083.6187,97.4984
3084.5828,97.4885
3085.5471,97.477
3086.5112,97.462
3087.4756,97.4432
3088.4397,97.4221
3089.4041,97.4021
3090.3682,97.3871
3091.3325,97.3793
3092.2966,97.3784
3093.2610,97.3808
3094.2251,97.3815
3095.1895,97.3766
3096.1536,97.3654
3097.1179,97.3507
3098.0820,97.337
3099.0464,97.3273
3100.0105,97.3208
3100.9749,97.3138
3101.9390,97.3018
3102.9033,97.2833
3103.8674,97.2606
3104.8318,97.2384
3105.7959,97.2205
3106.7603,97.2069
3107.7244,97.1939
3108.6887,97.1771
3109.6528,97.1546
3110.6172,97.129
3111.5813,97.1058
3112.5457,97.0906
3113.5098,97.0857
3114.4741,97.0892
3115.4382,97.0966
3116.4026,97.1033
3117.3667,97.1061
3118.3311,97.1036
3119.2952,97.0951
3120.2595,97.0803
3121.2236,97.0593
3122.1880,97.0331
3123.1521,97.004
3124.1165,96.9743
3125.0806,96.9458
3126.0449,96.9189
3127.0090,96.8947
3127.9734,96.8754
3128.9375,96.8645
3129.9019,96.8646
3130.8660,96.8745
3131.8303,96.8878
3132.7944,96.8947
3133.7588,96.8868
3134.7229,96.8613
3135.6873,96.8227
3136.6514,96.7802
3137.6157,96.7431
3138.5798,96.7167
3139.5442,96.7012
3140.5083,96.6928
3141.4727,96.6868
3142.4368,96.6798
3143.4011,96.6704
3144.3652,96.6589
3145.3296,96.6462
3146.2937,96.6332
3147.2581,96.62
3148.2222,96.6066
3149.1865,96.5922
3150.1506,96.5762
3151.1150,96.558
3152.0791,96.5373
3153.0435,96.5142
3154.0076,96.4891
3154.9719,96.4625
3155.9360,96.4354
3156.9004,96.4084
3157.8645,96.3817
3158.8289,96.3554
3159.7930,96.33
3160.7573,96.3072
3161.7214,96.29
3162.6858,96.2817
3163.6499,96.2828
3164.6143,96.2903
3165.5784,96.2977
3166.5427,96.298
3167.5068,96.2871
3168.4712,96.266
3169.4353,96.1742
3170.3997,96.1493
3171.3638,96.1303
3172.3281,96.118
3173.2922,96.1104
3174.2566,96.1045
3175.2207,96.0975
3176.1851,96.0874
3177.1492,96.0726
3178.1135,96.0525
3179.0776,96.0282
3180.0420,96.0022
3181.0061,95.9776
3181.9705,95.9566
3182.9346,95.9398
3183.8989,95.9266
3184.8630,95.9158
3185.8274,95.9065
3186.7915,95.8982
3187.7559,95.8897
3188.7200,95.879
3189.6843,95.8641
3190.6484,95.8439
3191.6128,95.8199
3192.5769,95.7951
3193.5413,95.7728
3194.5054,95.7547
3195.4697,95.7405
3196.4338,95.7283
3197.3982,95.7164
3198.3623,95.7052
3199.3267,95.6961
3200.2908,95.6907
3201.2551,95.6882
3202.2192,95.6852
3203.1836,95.6773
3204.1477,95.6613
3205.1121,95.6378
3206.0762,95.6113
3207.0405,95.5882
3208.0046,95.5735
3208.9690,95.5677
3209.9331,95.5671
3210.8975,95.5649
3211.8616,95.556
3212.8259,95.5386
3213.7900,95.5162
3214.7544,95.4945
3215.7185,95.4785
3216.6829,95.4698
3217.6470,95.4661
3218.6113,95.4626
3219.5754,95.4552
3220.5398,95.4429
3221.5039,95.4268
3222.4683,95.4096
3223.4324,95.3925
3224.3967,95.3755
3225.3608,95.3585
3226.3252,95.3426
3227.2893,95.3306
3228.2537,95.3255
3229.2178,95.3277
3230.1821,95.3342
3231.1462,95.3394
3232.1106,95.3376
3233.0747,95.3261
3234.0391,95.305
3235.0032,95.2771
3235.9675,95.2461
3236.9316,95.2155
3237.8960,95.1883
3238.8601,95.1674
3239.8245,95.1544
3240.7886,95.1491
3241.7529,95.149
3242.7170,95.1506
3243.6814,95.1509
3244.6455,95.1483
3245.6099,95.1431
3246.5740,95.1354
3247.5383,95.1243
3248.5024,95.1084
3249.4668,95.0877
3250.4309,95.0652
3251.3953,95.0463
3252.3594,95.0361
3253.3237,95.036
3254.2878,95.0417
3255.2522,95.0454
3256.2163,95.0395
3257.1807,95.0211
3258.1448,94.9928
3259.1091,94.9615
3260.0732,94.9341
3261.0376,94.9146
3262.0017,94.9033
3262.9661,94.8974
3263.9302,94.8938
3264.8945,94.8903
3265.8586,94.8864
3266.8230,94.8825
3267.7871,94.8791
3268.7515,94.8763
3269.7156,94.8742
3270.6799,94.8727
3271.6440,94.8713
3272.6084,94.8694
3273.5725,94.8654
3274.5369,94.8581
3275.5010,94.8475
3276.4653,94.8356
3277.4294,94.8252
3278.3938,94.8188
3279.3579,94.8174
3280.3223,94.8199
3281.2864,94.825
3282.2507,94.8319
3283.2148,94.8405
3284.1792,94.8504
3285.1433,94.8593
3286.1077,94.8631
3287.0718,94.8577
3288.0361,94.8428
3289.0002,94.823
3289.9646,94.8065
3290.9287,94.8009
3291.8931,94.8085
3292.8572,94.8244
3293.8215,94.8398
3294.7856,94.8467
3295.7500,94.8433
3296.7141,94.8345
3297.6785,94.8289
3298.6426,94.8335
3299.6069,94.8491
3300.5710,94.8708
3301.5354,94.8905
3302.4995,94.9021
3303.4639,94.9039
3304.4280,94.8989
3305.3923,94.8912
3306.3564,94.8836
3307.3208,94.8762
3308.2849,94.8684
3309.2493,94.8608
3310.2134,94.8562
3311.1777,94.8576
3312.1418,94.8657
3313.1062,94.8775
3314.0703,94.8876
3315.0347,94.8913
3315.9988,94.8876
3316.9631,94.8798
3317.9272,94.8732
3318.8916,94.8723
3319.8557,94.8786
3320.8201,94.8904
3321.7842,94.9043
3322.7485,94.9164
3323.7126,94.9239
3324.6770,94.9262
3325.6411,94.9245
3326.6055,94.9212
3327.5696,94.9187
3328.5339,94.9181
3329.4980,94.9182
3330.4624,94.9167
3331.4265,94.912
3332.3909,94.9052
3333.3550,94.9005
3334.3193,94.9037
3335.2834,94.919
3336.2478,94.9468
3337.2119,94.9828
3338.1763,95.0195
3339.1404,95.0495
3340.1047,95.0682
3341.0688,95.075
3342.0332,95.0734
3342.9973,95.0696
3343.9617,95.0693
3344.9258,95.0754
3345.8901,95.0876
3346.8542,95.1024
3347.8186,95.1158
3348.7827,95.1244
3349.7471,95.1266
3350.7112,95.1217
3351.6755,95.1102
3352.6396,95.094
3353.6040,95.0775
3354.5681,95.0671
3355.5325,95.0694
3356.4966,95.0877
3357.4609,95.1193
3358.4250,95.1561
3359.3894,95.1882
3360.3535,95.2086
3361.3179,95.2159
3362.2820,95.214
3363.2463,95.2092
3364.2104,95.2066
3365.1748,95.2087
3366.1389,95.2157
3367.1033,95.2275
3368.0674,95.2448
3369.0317,95.2686
3369.9958,95.2995
3370.9602,95.3366
3371.9243,95.3772
3372.8887,95.4174
3373.8528,95.4524
3374.8171,95.4771
3375.7813,95.4876
3376.7456,95.4827
3377.7097,95.465
3378.6741,95.4413
3379.6382,95.4201
3380.6025,95.4089
3381.5667,95.4109
3382.5310,95.4241
3383.4951,95.4419
3384.4595,95.4565
3385.4236,95.4628
3386.3879,95.4609
3387.3521,95.4558
3388.3164,95.4549
3389.2805,95.4637
3390.2449,95.4835
3391.2090,95.5092
3392.1733,95.5321
3393.1375,95.5445
3394.1018,95.5438
3395.0659,95.5341
3396.0303,95.5241
3396.9944,95.5223
3397.9587,95.5334
3398.9229,95.5558
3399.8872,95.5839
3400.8513,95.6113
3401.8157,95.6341
3402.7798,95.6517
3403.7441,95.6653
3404.7083,95.6756
3405.6726,95.6817
3406.6367,95.6817
3407.6011,95.6752
3408.5652,95.6647
3409.5295,95.6564
3410.4937,95.657
3411.4580,95.6707
3412.4221,95.6963
3413.3865,95.7271
3414.3506,95.7547
3415.3149,95.7731
3416.2791,95.7821
3417.2434,95.7864
3418.2075,95.7923
3419.1719,95.8032
3420.1360,95.8182
3421.1003,95.8337
3422.0645,95.8475
3423.0288,95.8609
3423.9929,95.8773
3424.9573,95.8991
3425.9214,95.9254
3426.8857,95.9511
3427.8499,95.9693
3428.8142,95.9753
3429.7783,95.97
3430.7427,95.9595
3431.7068,95.9529
3432.6711,95.9572
3433.6353,95.974
3434.5996,95.9992
3435.5637,96.0261
3436.5281,96.0489
3437.4922,96.0656
3438.4565,96.0775
3439.4207,96.0863
3440.3850,96.0922
3441.3491,96.0935
3442.3135,96.0901
3443.2776,96.0858
3444.2419,96.0889
3445.2061,96.1078
3446.1704,96.1446
3447.1345,96.1919
3448.0989,96.2367
3449.0630,96.2678
3450.0273,96.2823
3450.9915,96.2858
3451.9558,96.2885
3452.9199,96.2985
3453.8843,96.3174
3454.8484,96.3398
3455.8127,96.3584
3456.7769,96.3694
3457.7412,96.3759
3458.7053,96.3849
3459.6697,96.402
3460.6338,96.4275
3461.5981,96.4557
3462.5623,96.4792
3463.5266,96.4941
3464.4907,96.5029
3465.4551,96.5129
3466.4192,96.5313
3467.3835,96.5608
3468.3477,96.5972
3469.3120,96.632
3470.2761,96.6568
3471.2405,96.6678
3472.2046,96.6661
3473.1689,96.6571
3474.1331,96.6471
3475.0974,96.6418
3476.0615,96.6453
3477.0259,96.6606
3477.9900,96.6898
3478.9543,96.7327
3479.9185,96.7851
3480.8828,96.8377
3481.8469,96.8804
3482.8113,96.9066
3483.7754,96.917
3484.7397,96.9178
3485.7039,96.9164
3486.6682,96.9181
3487.6323,96.9239
3488.5967,96.9314
3489.5608,96.9375
3490.5251,96.9415
3491.4893,96.9467
3492.4536,96.9597
3493.4177,96.9871
3494.3821,97.0304
3495.3462,97.0827
3496.3105,97.1299
3497.2747,97.158
3498.2390,97.1615
3499.2031,97.1473
3500.1675,97.132
3501.1316,97.1328
3502.0959,97.1558
3503.0601,97.1922
3504.0244,97.2255
3504.9885,97.2443
3505.9529,97.2479
3506.9170,97.2461
3507.8813,97.2522
3508.8455,97.2747
3509.8098,97.3117
3510.7739,97.3531
3511.7383,97.3888
3512.7024,97.4137
3513.6667,97.4279
3514.6309,97.4334
3515.5952,97.4316
3516.5593,97.4231
3517.5237,97.4096
3518.4878,97.3961
3519.4521,97.39
3520.4163,97.398
3521.3806,97.4225
3522.3447,97.4592
3523.3091,97.501
3524.2732,97.5432
3525.2375,97.5866
3526.2017,97.6336
3527.1660,97.682
3528.1301,97.7227
3529.0945,97.7445
3530.0586,97.7424
3531.0229,97.7205
3531.9871,97.6906
3532.9514,97.6675
3533.9155,97.6635
3534.8799,97.6829
3535.8440,97.7195
3536.8083,97.7591
3537.7725,97.7877
3538.7368,97.7967
3539.7009,97.7864
3540.6653,97.766
3541.6294,97.7538
3542.5938,97.7712
3543.5579,97.8299
3544.5222,97.9181
3545.4863,98.0019
3546.4507,98.0488
3547.4148,98.0487
3548.3792,98.0147
3549.3433,97.9724
3550.3076,97.9498
3551.2717,97.9665
3552.2361,98.0222
3553.2002,98.0969
3554.1646,98.1638
3555.1287,98.2061
3556.0930,98.2232
3557.0571,98.2276
3558.0215,98.2332
3558.9856,98.2429
3559.9500,98.2434
3560.9141,98.2147
3561.8784,98.1483
3562.8425,98.0637
3563.8069,98.0118
3564.7710,98.0513
3565.7354,98.1925
3566.6995,98.3611
3567.6638,98.4639
3568.6279,98.4798
3569.5923,98.44
3570.5564,98.3727
3571.5208,98.2968
3572.4849,98.2351
3573.4492,98.2121
3574.4133,98.2405
3575.3777,98.312
3576.3418,98.4037
3577.3062,98.4902
3578.2703,98.5522
3579.2346,98.5762
3580.1987,98.553
3581.1631,98.4787
3582.1272,98.362
3583.0916,98.233
3584.0557,98.1477
3585.0200,98.1704
3585.9841,98.32
3586.9485,98.5224
3587.9126,98.6619
3588.8770,98.6896
3589.8411,98.6328
3590.8054,98.5368
3591.7695,98.4433
3592.7339,98.3897
3593.6980,98.3965
3594.6624,98.4518
3595.6265,98.5233
3596.5908,98.5882
3597.5549,98.6472
3598.5193,98.7121
3599.4834,98.7846
3600.4478,98.846
3601.4119,98.8683
3602.3762,98.8354
3603.3403,98.7546
3604.3047,98.6562
3605.2688,98.5838
3606.2332,98.5728
3607.1973,98.6246
3608.1616,98.7049
3609.1257,98.7759
3610.0901,98.825
3611.0542,98.8582
3612.0186,98.8782
3612.9829,98.8752
3613.9470,98.8384
3614.9114,98.7751
3615.8755,98.7204
3616.8398,98.7266
3617.8040,98.8273
3618.7683,98.9963
3619.7324,99.1549
3620.6968,99.2341
3621.6609,99.2089
3622.6252,99.0768
3623.5894,98.8477
3624.5537,98.5671
3625.5178,98.3415
3626.4822,98.3198
3627.4463,98.5807
3628.4106,98.9879
3629.3748,99.2878
3630.3391,99.3897
3631.3032,99.3634
3632.2676,99.2835
3633.2317,99.1924
3634.1960,99.1211
3635.1602,99.0923
3636.1245,99.1128
3637.0886,99.1722
3638.0530,99.2521
3639.0171,99.3337
3639.9814,99.3987
3640.9456,99.4248
3641.9099,99.3872
3642.8740,99.2697
3643.8384,99.0854
3644.8025,98.9034
3645.7668,98.8714
3646.7310,99.1801
3647.6953,99.857
3648.6594,100.501
3649.6238,100.64
3650.5879,100.361
3651.5522,99.9775
3652.5164,99.6332
3653.4807,99.3614
3654.4448,99.1947
3655.4092,99.1684
3656.3733,99.2754
3657.3376,99.4534
3658.3018,99.6296
3659.2661,99.7632
3660.2302,99.8489
3661.1946,99.897
3662.1587,99.9099
3663.1230,99.8727
3664.0872,99.7658
3665.0515,99.5943
3666.0156,99.4109
3666.9800,99.3119
3667.9441,99.3762
3668.9084,99.5648
3669.8726,99.7123
3670.8369,99.6896
3671.8010,99.5232
3672.7654,99.349
3673.7295,99.3201
3674.6938,99.5042
3675.6580,99.7979
3676.6223,100.023
3677.5864,100.115
3678.5508,100.107
3679.5149,100.041
3680.4792,99.9397
3681.4434,99.8101
3682.4077,99.6481
3683.3718,99.4431
3684.3362,99.1997
3685.3003,98.9668
3686.2646,98.8518
3687.2288,98.9815
3688.1931,99.3788
3689.1572,99.8551
3690.1216,100.157
3691.0857,100.215
3692.0500,100.112
3693.0142,99.9353
3693.9785,99.7302
3694.9426,99.5199
3695.9070,99.3203
3696.8711,99.1491
3697.8354,99.0321
3698.7996,99.0028
3699.7639,99.0864
3700.7280,99.2687
3701.6924,99.4801
3702.6565,99.6283
3703.6208,99.6525
3704.5850,99.5425
3705.5493,99.3263
3706.5134,99.0641
3707.4778,98.8536
3708.4419,98.8178
3709.4063,99.0358
3710.3704,99.4306
3711.3347,99.7818
3712.2988,99.9412
3713.2632,99.9297
3714.2273,99.8197
3715.1917,99.6554
3716.1558,99.467
3717.1201,99.2935
3718.0842,99.1813
3719.0486,99.165
3720.0127,99.2495
3720.9771,99.4133
3721.9412,99.6295
3722.9055,99.8588
3723.8696,100.067
3724.8340,100.213
3725.7981,100.256
3726.7625,100.182
3727.7266,99.9989
3728.6909,99.7385
3729.6550,99.4549
3730.6194,99.237
3731.5835,99.2093
3732.5479,99.4954
3733.5120,100.108
3734.4763,100.827
3735.4404,101.306
3736.4048,101.4
3737.3689,101.209
3738.3333,100.86
3739.2974,100.411
3740.2617,99.9096
3741.2258,99.4508
3742.1902,99.1807
3743.1543,99.2018
3744.1187,99.4406
3745.0828,99.6813
3746.0471,99.7804
3747.0112,99.7579
3747.9756,99.7318
3748.9397,99.8262
3749.9041,100.046
3750.8682,100.212
3751.8325,100.175
3752.7966,99.981
3753.7610,99.734
3754.7251,99.4877
3755.6895,99.282
3756.6536,99.1679
3757.6179,99.1761
3758.5820,99.2748
3759.5464,99.3839
3760.5105,99.4378
3761.4749,99.4188
3762.4390,99.3442
3763.4033,99.2463
3764.3674,99.1583
3765.3318,99.105
3766.2959,99.0981
3767.2603,99.1391
3768.2244,99.2205
3769.1887,99.3215
3770.1528,99.4086
3771.1172,99.4474
3772.0813,99.4171
3773.0457,99.3157
3774.0098,99.1613
3774.9741,98.9953
3775.9382,98.8794
3776.9026,98.8723
3777.8667,98.9867
3778.8311,99.1677
3779.7952,99.3303
3780.7595,99.4215
3781.7236,99.4404
3782.6880,99.4146
3783.6521,99.3745
3784.6165,99.339
3785.5806,99.3132
3786.5449,99.2934
3787.5090,99.2733
3788.4734,99.2459
3789.4375,99.2042
3790.4019,99.1468
3791.3660,99.0847
3792.3303,99.0435
3793.2944,99.052
3794.2588,99.1212
3795.2229,99.2262
3796.1873,99.3179
3797.1514,99.359
3798.1157,99.3545
3799.0798,99.3418
3800.0442,99.3426
3801.0083,99.327
3801.9727,99.2476
3802.9368,99.1018
3803.9011,98.9373
3804.8652,98.8229
3805.8296,98.8191
3806.7937,98.94
3807.7581,99.1287
3808.7222,99.292
3809.6865,99.358
3810.6506,99.3047
3811.6150,99.1656
3812.5791,99.0222
3813.5435,98.9682
3814.5076,99.0393
3815.4719,99.1689
3816.4360,99.2481
3817.4004,99.2326
3818.3645,99.1687
3819.3289,99.1313
3820.2930,99.1519
3821.2573,99.2011
3822.2214,99.2403
3823.1858,99.2582
3824.1499,99.26
3825.1143,99.2546
3826.0784,99.2546
3827.0427,99.2719
3828.0068,99.3098
3828.9712,99.3595
3829.9353,99.4034
3830.8997,99.4189
3831.8638,99.3837
3832.8281,99.2842
3833.7922,99.1295
3834.7566,98.9596
3835.7207,98.8385
3836.6851,98.8228
3837.6492,98.9218
3838.6135,99.089
3839.5776,99.265
3840.5420,99.4204
3841.5061,99.5536
3842.4705,99.6683
3843.4346,99.7574
3844.3989,99.7994
3845.3630,99.7631
3846.3274,99.6165
3847.2915,99.3387
3848.2559,98.9413
3849.2200,98.4991
3850.1843,98.1835
3851.1484,98.2442
3852.1128,98.8095
3853.0769,99.5658
3854.0413,100.007
3855.0054,100.071
3855.9697,99.9563
3856.9338,99.7674
3857.8982,99.5244
3858.8623,99.2542
3859.8267,99.0208
3860.7908,98.9085
3861.7551,98.9683
3862.7192,99.1618
3863.6836,99.3667
3864.6477,99.4665
3865.6121,99.4281
3866.5762,99.2979
3867.5405,99.159
3868.5046,99.0914
3869.4690,99.1349
3870.4331,99.2658
3871.3975,99.4135
3872.3616,99.5102
3873.3259,99.5238
3874.2900,99.456
3875.2544,99.328
3876.2185,99.1761
3877.1829,99.0501
3878.1470,99.0008
3879.1113,99.0535
3880.0754,99.1828
3881.0398,99.3246
3882.0039,99.4206
3882.9683,99.4522
3883.9324,99.431
3884.8967,99.3718
3885.8608,99.281
3886.8252,99.1648
3887.7893,99.0442
3888.7537,98.9643
3889.7178,98.9855
3890.6821,99.1401
3891.6462,99.381
3892.6106,99.5956
3893.5747,99.6877
3894.5391,99.6295
3895.5032,99.4514
3896.4675,99.2203
3897.4316,99.0186
3898.3960,98.9146
3899.3601,98.9317
3900.3245,99.0455
3901.2886,99.2122
3902.2529,99.3906
3903.2170,99.5429
3904.1814,99.6406
3905.1455,99.676
3906.1099,99.6598
3907.0740,99.6081
3908.0383,99.5362
3909.0024,99.4587
3909.9668,99.3873
3910.9309,99.3265
3911.8953,99.2747
3912.8594,99.233
3913.8237,99.2136
3914.7878,99.2375
3915.7522,99.3178
3916.7163,99.4383
3917.6807,99.5532
3918.6448,99.6171
3919.6091,99.613
3920.5732,99.5548
3921.5376,99.4744
3922.5017,99.4058
3923.4661,99.3693
3924.4302,99.3618
3925.3945,99.3633
3926.3586,99.3554
3927.3230,99.3357
3928.2871,99.3212
3929.2515,99.3398
3930.2156,99.4097
3931.1799,99.5198
3932.1440,99.6312
3933.1084,99.7032
3934.0725,99.7157
3935.0369,99.6704
3936.0010,99.5809
3936.9653,99.4665
3937.9294,99.3506
3938.8938,99.2596
3939.8579,99.2176
3940.8223,99.2363
3941.7864,99.3046
3942.7507,99.3904
3943.7148,99.4576
3944.6792,99.4859
3945.6433,99.4793
3946.6077,99.46
3947.5718,99.4533
3948.5361,99.4713
3949.5002,99.5043
3950.4646,99.5299
3951.4287,99.5294
3952.3931,99.4989
3953.3572,99.4494
3954.3215,99.3992
3955.2856,99.3649
3956.2500,99.3551
3957.2141,99.3698
3958.1785,99.4047
3959.1426,99.4544
3960.1069,99.513
3961.0710,99.5716
3962.0354,99.619
3962.9995,99.6441
3963.9639,99.6415
3964.9280,99.6132
3965.8923,99.5679
3966.8564,99.5179
3967.8208,99.4755
3968.7849,99.4503
3969.7493,99.4474
3970.7134,99.4673
3971.6777,99.5061
3972.6418,99.5555
3973.6062,99.6043
3974.5703,99.641
3975.5347,99.6576
3976.4988,99.6528
3977.4631,99.6316
3978.4272,99.6027
3979.3916,99.5748
3980.3557,99.5536
3981.3201,99.5405
3982.2842,99.5325
3983.2485,99.5254
3984.2126,99.516
3985.1770,99.5041
3986.1411,99.4938
3987.1055,99.4912
3988.0696,99.5013
3989.0339,99.5254
3989.9980,99.5583
3990.9624,99.5908
3991.9265,99.6137
3992.8909,99.623
3993.8550,99.6216
3994.8193,99.6168
3995.7834,99.6159
3996.7478,99.6208
3997.7119,99.6279
3998.6763,99.6304
3999.6404,99.624
4000.6047,99.7529

##### Extended Information
[Comments]
Sample name
Comment
User
Division
Company,HANKYONG

[Detailed Information]
Creation date,4/24/2024 2:37 PM

Data array type,Linear data array
Horizontal axis,Wavenumber [cm-1]
Vertical axis,%T
Start,649.893 cm-1
End,4000.6 cm-1
Data interval,0.964233 cm-1
Data points,3476    

[Measurement Information]
Model Name,FT/IR-4700typeA
Serial Number,D056761788

Accessory,ATR PRO ONE
Accessory S/N,C174761809
Incident angle,45 deg

Measurement Date,4/24/2024 2:36 PM

Light Source,Standard
Detector,TGS
Accumulation,32
Resolution,4 cm-1
Zero Filling,On
Apodization,Cosine
Gain,Auto (4)
Aperture,Auto (7.1 mm)
Scanning Speed,Auto (2 mm/sec)
Filter,Auto (30000 Hz)

