TITLE,
DATA TYPE,INFRARED SPECTRUM
ORIGIN,JASCO
OWNER,
DATE,24/04/24
TIME,13:41:13
SPECTROMETER/DATA SYSTEM,
LOCALE,1033
RESOLUTION,
DELTAX,0.964233
XUNITS,1/CM
YUNITS,TRANSMITTANCE
FIRSTX,  649.8934
LASTX, 4000.6047
NPOINTS,    3476
FIRSTY,    99.81865
MAXY,   100.90289
MINY,    79.66559
XYDATA
649.8934,99.8186
650.8576,99.7117
651.8218,99.6373
652.7861,99.5984
653.7503,99.5825
654.7145,99.5728
655.6788,99.5497
656.6430,99.498
657.6072,99.4177
658.5715,99.3298
659.5357,99.2709
660.4999,99.2693
661.4642,99.3185
662.4284,99.3696
663.3926,99.3516
664.3569,99.1937
665.3211,98.8365
666.2853,98.2585
667.2496,97.5664
668.2138,97.085
669.1780,97.1238
670.1423,97.5775
671.1065,98.1132
672.0707,98.53
673.0350,98.7803
673.9992,98.8823
674.9634,98.8791
675.9277,98.8281
676.8919,98.7884
677.8561,98.8011
678.8204,98.8779
679.7846,99.0059
680.7488,99.1599
681.7131,99.3135
682.6773,99.4476
683.6415,99.5548
684.6058,99.638
685.5700,99.7032
686.5342,99.7523
687.4985,99.7803
688.4627,99.778
689.4269,99.7381
690.3912,99.6618
691.3554,99.5675
692.3196,99.4977
693.2839,99.5101
694.2481,99.6341
695.2123,99.8403
696.1766,100.068
697.1408,100.268
698.1050,100.409
699.0693,100.485
700.0335,100.505
700.9977,100.491
701.9620,100.468
702.9262,100.458
703.8904,100.47
704.8547,100.501
705.8189,100.537
706.7831,100.561
707.7474,100.564
708.7116,100.547
709.6758,100.523
710.6401,100.51
711.6043,100.52
712.5685,100.552
713.5328,100.588
714.4970,100.597
715.4612,100.664
716.4255,100.556
717.3897,100.407
718.3539,100.257
719.3182,100.153
720.2824,100.125
721.2466,100.175
722.2109,100.276
723.1751,100.386
724.1393,100.473
725.1036,100.523
726.0678,100.535
727.0320,100.519
727.9963,100.489
728.9605,100.455
729.9247,100.426
730.8890,100.409
731.8532,100.405
732.8174,100.409
733.7817,100.41
734.7459,100.396
735.7101,100.359
736.6744,100.298
737.6386,100.22
738.6028,100.135
739.5671,100.052
740.5313,99.9797
741.4955,99.9215
742.4598,99.8796
743.4240,99.8525
744.3882,99.8353
745.3525,99.8449
746.3167,99.8884
747.2809,99.9145
748.2452,99.9203
749.2094,99.911
750.1736,99.898
751.1379,99.8934
752.1021,99.9039
753.0663,99.9269
754.0306,99.952
754.9948,99.9678
755.9590,99.9684
756.9233,99.9578
757.8875,99.9468
758.8517,99.9464
759.8160,99.9615
760.7802,99.9884
761.7444,100.018
762.7087,100.041
763.6729,100.054
764.6371,100.06
765.6014,100.067
766.5656,100.082
767.5298,100.107
768.4941,100.142
769.4583,100.181
770.4225,100.217
771.3868,100.243
772.3510,100.253
773.3152,100.246
774.2795,100.223
775.2437,100.189
776.2079,100.152
777.1722,100.123
778.1364,100.109
779.1006,100.118
780.0649,100.148
781.0291,100.195
781.9933,100.252
782.9576,100.311
783.9218,100.369
784.8860,100.424
785.8503,100.474
786.8145,100.518
787.7787,100.549
788.7430,100.566
789.7072,100.567
790.6714,100.559
791.6357,100.546
792.5999,100.534
793.5641,100.525
794.5284,100.517
795.4926,100.506
796.4568,100.489
797.4211,100.463
798.3853,100.429
799.3495,100.39
800.3138,100.35
801.2780,100.315
802.2422,100.285
803.2065,100.259
804.1707,100.232
805.1349,100.199
806.0992,100.161
807.0634,100.123
808.0276,100.093
808.9919,100.074
809.9561,100.067
810.9203,100.063
811.8846,100.055
812.8488,100.039
813.8130,100.018
814.7773,99.9992
815.7415,99.9884
816.7057,99.9868
817.6700,99.9906
818.6342,99.9937
819.5984,99.9912
820.5627,99.9822
821.5269,99.9698
822.4911,99.959
823.4554,99.9537
824.4196,99.9555
825.3839,99.9632
826.3481,99.9745
827.3123,99.9876
828.2766,100.003
829.2408,100.021
830.2050,100.044
831.1693,100.072
832.1335,100.102
833.0977,100.129
834.0620,100.15
835.0262,100.16
835.9904,100.161
836.9547,100.157
837.9189,100.154
838.8831,100.155
839.8474,100.162
840.8116,100.172
841.7758,100.18
842.7401,100.18
843.7043,100.167
844.6685,100.176
845.6328,100.178
846.5970,100.169
847.5612,100.153
848.5255,100.137
849.4897,100.127
850.4539,100.123
851.4182,100.126
852.3824,100.129
853.3466,100.127
854.3109,100.114
855.2751,100.085
856.2393,100.04
857.2036,99.9814
858.1678,99.9153
859.1320,99.8474
860.0963,99.7829
861.0605,99.725
862.0247,99.6738
862.9890,99.6275
863.9532,99.5836
864.9174,99.5401
865.8817,99.4956
866.8459,99.4495
867.8101,99.4019
868.7744,99.3542
869.7386,99.3099
870.7028,99.2732
871.6671,99.2465
872.6313,99.2262
873.5955,99.2024
874.5598,99.1621
875.5240,99.0972
876.4882,99.0107
877.4525,98.9181
878.4167,98.8409
879.3809,98.7964
880.3452,98.7892
881.3094,98.8096
882.2736,98.84
883.2379,98.8632
884.2021,98.8684
885.1663,98.8523
886.1306,98.8165
887.0948,98.7638
888.0590,98.6982
889.0233,98.6253
889.9875,98.5534
890.9517,98.492
891.9160,98.4496
892.8802,98.431
893.8444,98.4374
894.8087,98.4674
895.7729,98.5176
896.7371,98.584
897.7014,98.6624
898.6656,98.7496
899.6298,98.8449
900.5941,98.9502
901.5583,99.069
902.5225,99.2034
903.4868,99.3524
904.4510,99.5109
905.4152,99.6713
906.3795,99.825
907.3437,99.9646
908.3079,100.084
909.2722,100.18
910.2364,100.23
911.2006,100.238
912.1649,100.237
913.1291,100.236
914.0933,100.239
915.0576,100.248
916.0218,100.256
916.9860,100.255
917.9503,100.24
918.9145,100.208
919.8787,100.159
920.8430,100.096
921.8072,100.027
922.7714,99.9582
923.7357,99.8981
924.6999,99.8508
925.6641,99.8147
926.6284,99.783
927.5926,99.7461
928.5568,99.6959
929.5211,99.6291
930.4853,99.5466
931.4495,99.4524
932.4138,99.3502
933.3780,99.2435
934.3422,99.1353
935.3065,99.028
936.2707,98.9226
937.2349,98.8169
938.1992,98.7056
939.1634,98.5823
940.1276,98.4433
941.0919,98.2903
942.0561,98.13
943.0203,97.971
943.9846,97.8185
944.9488,97.6719
945.9130,97.5244
946.8773,97.3668
947.8415,97.1918
948.8057,96.9977
949.7700,96.7886
950.7342,96.573
951.6984,96.3591
952.6627,96.1522
953.6269,95.9527
954.5911,95.7572
955.5554,95.5609
956.5196,95.3605
957.4838,95.1555
958.4481,94.9475
959.4123,94.7387
960.3765,94.5302
961.3408,94.322
962.3050,94.1132
963.2692,93.9034
964.2335,93.6936
965.1977,93.485
966.1619,93.2789
967.1262,93.0748
968.0904,92.8704
969.0546,92.6617
970.0189,92.4442
970.9831,92.214
971.9473,91.9692
972.9116,91.7105
973.8758,91.4408
974.8400,91.1639
975.8043,90.882
976.7685,90.5946
977.7327,90.299
978.6970,89.9935
979.6612,89.68
980.6254,89.3655
981.5897,89.0605
982.5539,88.7751
983.5181,88.5141
984.4824,88.2764
985.4466,88.057
986.4108,87.8507
987.3751,87.656
988.3393,87.4754
989.3035,87.3128
990.2678,87.1696
991.2320,87.0428
992.1962,86.9246
993.1605,86.8052
994.1247,86.6761
995.0889,86.5331
996.0532,86.3768
997.0174,86.211
997.9816,86.0401
998.9459,85.8664
999.9101,85.689
1000.8743,85.505
1001.8386,85.3119
1002.8028,85.1092
1003.7670,84.8981
1004.7313,84.6806
1005.6955,84.4574
1006.6597,84.2281
1007.6240,83.9917
1008.5882,83.7484
1009.5524,83.5001
1010.5167,83.2502
1011.4809,83.0035
1012.4451,82.7653
1013.4094,82.5403
1014.3736,82.3317
1015.3378,82.1391
1016.3021,81.96
1017.2663,81.7923
1018.2305,81.6373
1019.1948,81.4982
1020.1590,81.3757
1021.1232,81.2613
1022.0875,81.1364
1023.0517,80.9817
1024.0160,80.7911
1024.9802,80.5826
1025.9445,80.3948
1026.9087,80.2695
1027.8729,80.2287
1028.8372,80.2611
1029.8014,80.3267
1030.7656,80.3769
1031.7299,80.3771
1032.6941,80.3195
1033.6583,80.2209
1034.6226,80.1097
1035.5868,80.012
1036.5510,79.9431
1037.5153,79.9057
1038.4795,79.8925
1039.4437,79.8898
1040.4080,79.8829
1041.3722,79.8607
1042.3364,79.8205
1043.3007,79.7689
1044.2649,79.7184
1045.2291,79.6815
1046.1934,79.6656
1047.1576,79.6724
1048.1218,79.7015
1049.0861,79.7538
1050.0503,79.8316
1051.0145,79.9351
1051.9788,80.059
1052.9430,80.1941
1053.9072,80.3345
1054.8715,80.4867
1055.8357,80.6727
1056.7999,80.9213
1057.7642,81.2499
1058.7284,81.6464
1059.6926,82.0632
1060.6569,82.4319
1061.6211,82.6936
1062.5853,82.8301
1063.5496,82.8775
1064.5138,82.9132
1065.4780,83.0192
1066.4423,83.2431
1067.4065,83.5762
1068.3707,83.961
1069.3350,84.3226
1070.2992,84.6051
1071.2634,84.793
1072.2277,84.909
1073.1919,84.9949
1074.1561,85.0893
1075.1204,85.215
1076.0846,85.3791
1077.0488,85.5809
1078.0131,85.8185
1078.9773,86.0906
1079.9415,86.3936
1080.9058,86.7193
1081.8700,87.0544
1082.8342,87.3848
1083.7985,87.6991
1084.7627,87.9925
1085.7269,88.2669
1086.6912,88.5305
1087.6554,88.7942
1088.6196,89.0673
1089.5839,89.3528
1090.5481,89.6447
1091.5123,89.9293
1092.4766,90.1899
1093.4408,90.4131
1094.4050,90.5926
1095.3693,90.7301
1096.3335,90.8334
1097.2977,90.9121
1098.2620,90.9762
1099.2262,91.0345
1100.1904,91.0943
1101.1547,91.1618
1102.1189,91.2415
1103.0831,91.3363
1104.0474,91.4478
1105.0116,91.5761
1105.9758,91.7198
1106.9401,91.875
1107.9043,92.0361
1108.8685,92.1978
1109.8328,92.3582
1110.7970,92.52
1111.7612,92.6889
1112.7255,92.8701
1113.6897,93.0637
1114.6539,93.2631
1115.6182,93.4585
1116.5824,93.6408
1117.5466,93.8063
1118.5109,93.9572
1119.4751,94.0994
1120.4393,94.2389
1121.4036,94.3794
1122.3678,94.5223
1123.3320,94.6686
1124.2963,94.8204
1125.2605,94.9818
1126.2247,95.1571
1127.1890,95.3493
1128.1532,95.5578
1129.1174,95.7784
1130.0817,96.0036
1131.0459,96.2252
1132.0101,96.4359
1132.9744,96.6313
1133.9386,96.8102
1134.9028,96.9723
1135.8671,97.1172
1136.8313,97.2428
1137.7955,97.3459
1138.7598,97.4242
1139.7240,97.4782
1140.6882,97.5109
1141.6525,97.526
1142.6167,97.526
1143.5809,97.5107
1144.5452,97.4791
1145.5094,97.4318
1146.4736,97.3735
1147.4379,97.3117
1148.4021,97.2543
1149.3663,97.2057
1150.3306,97.1652
1151.2948,97.1285
1152.2590,97.091
1153.2233,97.0516
1154.1875,97.0141
1155.1517,96.9862
1156.1160,96.9774
1157.0802,96.9955
1158.0444,97.0446
1159.0087,97.125
1159.9729,97.233
1160.9371,97.363
1161.9014,97.5093
1162.8656,97.6675
1163.8298,97.8358
1164.7941,98.0145
1165.7583,98.2048
1166.7225,98.4062
1167.6868,98.6162
1168.6510,98.8295
1169.6152,99.0398
1170.5795,99.2411
1171.5437,99.4288
1172.5079,99.5993
1173.4722,99.7498
1174.4364,99.8781
1175.4006,99.9829
1176.3649,100.065
1177.3291,100.126
1178.2933,100.169
1179.2576,100.196
1180.2218,100.216
1181.1860,100.22
1182.1503,100.205
1183.1145,100.175
1184.0787,100.132
1185.0430,100.081
1186.0072,100.024
1186.9714,99.9636
1187.9357,99.8965
1188.8999,99.8206
1189.8641,99.7342
1190.8284,99.6372
1191.7926,99.5301
1192.7568,99.4128
1193.7211,99.2848
1194.6853,99.1458
1195.6495,98.9969
1196.6138,98.8413
1197.5780,98.6826
1198.5422,98.5237
1199.5065,98.4475
1200.4707,98.2764
1201.4349,98.1001
1202.3992,97.9177
1203.3634,97.7309
1204.3276,97.5425
1205.2919,97.3551
1206.2561,97.1699
1207.2203,96.9856
1208.1846,96.8006
1209.1488,96.6138
1210.1130,96.4257
1211.0773,96.2385
1212.0415,96.054
1213.0057,95.8723
1213.9700,95.6913
1214.9342,95.5081
1215.8984,95.3209
1216.8627,95.1315
1217.8269,94.9445
1218.7911,94.7642
1219.7554,94.5933
1220.7196,94.4313
1221.6838,94.2762
1222.6481,94.1269
1223.6123,93.9849
1224.5765,93.8538
1225.5408,93.7381
1226.5050,93.6406
1227.4692,93.5616
1228.4335,93.5
1229.3977,93.4548
1230.3619,93.4268
1231.3262,93.419
1232.2904,93.435
1233.2546,93.4755
1234.2189,93.5349
1235.1831,93.5987
1236.1473,93.6465
1237.1116,93.6596
1238.0758,93.6306
1239.0400,93.5703
1240.0043,93.5046
1240.9685,93.4633
1241.9327,93.465
1242.8970,93.5067
1243.8612,93.566
1244.8254,93.6144
1245.7897,93.6323
1246.7539,93.6195
1247.7181,93.592
1248.6824,93.5713
1249.6466,93.5725
1250.6108,93.599
1251.5751,93.6443
1252.5393,93.6982
1253.5035,93.7526
1254.4678,93.8038
1255.4320,93.8522
1256.3962,93.9008
1257.3605,93.954
1258.3247,94.0171
1259.2889,94.0944
1260.2532,94.1876
1261.2174,94.2937
1262.1816,94.4064
1263.1459,94.5191
1264.1101,94.627
1265.0743,94.7296
1266.0386,94.8292
1267.0028,94.9304
1267.9670,95.0378
1268.9313,95.1554
1269.8955,95.2858
1270.8597,95.4292
1271.8240,95.5834
1272.7882,95.7434
1273.7524,95.9032
1274.7167,96.0569
1275.6809,96.2008
1276.6451,96.3337
1277.6094,96.4577
1278.5736,96.5765
1279.5378,96.6939
1280.5021,96.8119
1281.4663,96.9289
1282.4305,97.0409
1283.3948,97.1429
1284.3590,97.232
1285.3232,97.3091
1286.2875,97.3789
1287.2517,97.4477
1288.2159,97.5202
1289.1802,97.5965
1290.1444,97.6717
1291.1086,97.7383
1292.0729,97.7899
1293.0371,97.8238
1294.0013,97.842
1294.9656,97.8492
1295.9298,97.8507
1296.8940,97.8494
1297.8583,97.8455
1298.8225,97.8364
1299.7867,97.8195
1300.7510,97.7929
1301.7152,97.7553
1302.6794,97.7071
1303.6437,97.6502
1304.6079,97.5864
1305.5721,97.5171
1306.5364,97.4421
1307.5006,97.3595
1308.4648,97.2666
1309.4291,97.1628
1310.3933,97.0513
1311.3575,96.9399
1312.3218,96.8378
1313.2860,96.7512
1314.2502,96.6809
1315.2145,96.6239
1316.1787,96.5787
1317.1429,96.5492
1318.1072,96.5436
1319.0714,96.5676
1320.0356,96.6184
1320.9999,96.6832
1321.9641,96.7467
1322.9283,96.7983
1323.8926,96.8354
1324.8568,96.8613
1325.8210,96.8812
1326.7853,96.8982
1327.7495,96.9135
1328.7137,96.9276
1329.6780,96.9428
1330.6422,96.9612
1331.6064,96.9815
1332.5707,96.9969
1333.5349,96.9937
1334.4991,96.9576
1335.4634,96.8818
1336.4276,96.7765
1337.3918,96.6783
1338.3561,96.644
1339.3203,96.7188
1340.2845,96.8957
1341.2488,97.117
1342.2130,97.3175
1343.1772,97.4599
1344.1415,97.5377
1345.1057,97.5628
1346.0699,97.5547
1347.0342,97.5335
1347.9984,97.5136
1348.9626,97.4988
1349.9269,97.483
1350.8911,97.4556
1351.8553,97.409
1352.8196,97.3425
1353.7838,97.2621
1354.7480,97.1756
1355.7123,97.0867
1356.6765,96.9915
1357.6407,96.8805
1358.6050,96.7443
1359.5692,96.5805
1360.5334,96.404
1361.4977,96.2516
1362.4619,96.1611
1363.4261,96.1333
1364.3904,96.1293
1365.3546,96.1083
1366.3188,96.0537
1367.2831,95.9708
1368.2473,95.8725
1369.2115,95.7697
1370.1758,95.6666
1371.1400,95.5621
1372.1042,95.4589
1373.0685,95.3724
1374.0327,95.3274
1374.9969,95.3389
1375.9612,95.3953
1376.9254,95.4712
1377.8896,95.5515
1378.8539,95.6365
1379.8181,95.7301
1380.7823,95.829
1381.7466,95.9235
1382.7108,96.0059
1383.6750,96.0795
1384.6393,96.1599
1385.6035,96.2695
1386.5677,96.4215
1387.5320,96.5915
1388.4962,96.7159
1389.4604,96.7418
1390.4247,96.6665
1391.3889,96.5258
1392.3531,96.3667
1393.3174,96.2388
1394.2816,96.1936
1395.2458,96.2649
1396.2101,96.4387
1397.1743,96.6526
1398.1385,96.833
1399.1028,96.9326
1400.0670,96.9411
1401.0313,96.8754
1401.9955,96.7655
1402.9597,96.6432
1403.9240,96.5357
1404.8882,96.4601
1405.8524,96.4148
1406.8167,96.3823
1407.7809,96.3455
1408.7451,96.3024
1409.7094,96.263
1410.6736,96.2352
1411.6378,96.2153
1412.6021,96.1915
1413.5663,96.1568
1414.5305,96.117
1415.4948,96.0848
1416.4590,96.075
1417.4232,96.1094
1418.3875,96.2036
1419.3517,96.3223
1420.3159,96.39
1421.2802,96.3784
1422.2444,96.3325
1423.2086,96.3151
1424.1729,96.3574
1425.1371,96.449
1426.1013,96.5589
1427.0656,96.6605
1428.0298,96.7442
1428.9940,96.8145
1429.9583,96.8792
1430.9225,96.9431
1431.8867,97.0131
1432.8510,97.1034
1433.8152,97.2284
1434.7794,97.3924
1435.7437,97.5874
1436.7079,97.7819
1437.6721,97.9097
1438.6364,97.9203
1439.6006,97.835
1440.5648,97.7184
1441.5291,97.6181
1442.4933,97.5412
1443.4575,97.4682
1444.4218,97.3776
1445.3860,97.2646
1446.3502,97.1427
1447.3145,97.0308
1448.2787,96.9342
1449.2429,96.8393
1450.2072,96.7332
1451.1714,96.6286
1452.1356,96.5587
1453.0999,96.5432
1454.0641,96.5576
1455.0283,96.5471
1455.9926,96.5365
1456.9568,96.7069
1457.9210,97.0838
1458.8853,97.3737
1459.8495,97.435
1460.8137,97.3813
1461.7780,97.3505
1462.7422,97.4041
1463.7064,97.5431
1464.6707,97.7391
1465.6349,97.9397
1466.5991,98.0926
1467.5634,98.1944
1468.5276,98.2829
1469.4918,98.3816
1470.4561,98.4738
1471.4203,98.547
1472.3845,98.67
1473.3488,98.9489
1474.3130,99.3473
1475.2772,99.7109
1476.2415,99.9557
1477.2057,100.098
1478.1699,100.182
1479.1342,100.243
1480.0984,100.301
1481.0626,100.358
1482.0269,100.395
1482.9911,100.383
1483.9553,100.328
1484.9196,100.216
1485.8838,100.031
1486.8480,99.7695
1487.8123,99.489
1488.7765,99.3254
1489.7407,99.3609
1490.7050,99.4914
1491.6692,99.566
1492.6334,99.5421
1493.5977,99.445
1494.5619,99.2891
1495.5261,99.0652
1496.4904,98.7865
1497.4546,98.5129
1498.4188,98.2838
1499.3831,98.0739
1500.3473,97.872
1501.3115,97.7265
1502.2758,97.6929
1503.2400,97.7639
1504.2042,97.8188
1505.1685,97.6359
1506.1327,97.1194
1507.0969,96.6579
1508.0612,96.652
1509.0254,96.851
1509.9896,96.9779
1510.9539,97.0327
1511.9181,97.0773
1512.8823,97.1276
1513.8466,97.1658
1514.8108,97.1816
1515.7750,97.1963
1516.7393,97.2478
1517.7035,97.3562
1518.6677,97.511
1519.6320,97.6878
1520.5962,97.869
1521.5604,98.0419
1522.5247,98.1909
1523.4889,98.3177
1524.4531,98.4533
1525.4174,98.629
1526.3816,98.8373
1527.3458,99.0346
1528.3101,99.1823
1529.2743,99.2753
1530.2385,99.3295
1531.2028,99.3587
1532.1670,99.3752
1533.1312,99.3988
1534.0955,99.4454
1535.0597,99.5219
1536.0239,99.6377
1536.9882,99.7739
1537.9524,99.8223
1538.9166,99.5924
1539.8809,99.0465
1540.8451,98.5968
1541.8093,98.6157
1542.7736,98.8854
1543.7378,99.1264
1544.7020,99.2764
1545.6663,99.3476
1546.6305,99.3505
1547.5947,99.2988
1548.5590,99.2468
1549.5232,99.1893
1550.4874,99.1379
1551.4517,99.0901
1552.4159,99.0444
1553.3801,99.0191
1554.3444,99.0477
1555.3086,99.1461
1556.2728,99.2855
1557.2371,99.4512
1558.2013,99.7621
1559.1655,100.192
1560.1298,100.304
1561.0940,99.955
1562.0582,99.4139
1563.0225,98.9355
1563.9867,98.626
1564.9509,98.4807
1565.9152,98.4388
1566.8794,98.4265
1567.8436,98.3949
1568.8079,98.3363
1569.7721,98.26
1570.7363,98.1673
1571.7006,98.0675
1572.6648,97.9797
1573.6290,97.9024
1574.5933,97.8072
1575.5575,97.6839
1576.5217,97.565
1577.4860,97.4535
1578.4502,97.3078
1579.4144,97.1253
1580.3787,96.9443
1581.3429,96.7898
1582.3071,96.655
1583.2714,96.5185
1584.2356,96.365
1585.1998,96.1929
1586.1641,96.0101
1587.1283,95.8263
1588.0925,95.6488
1589.0568,95.482
1590.0210,95.3275
1590.9852,95.1861
1591.9495,95.0606
1592.9137,94.9579
1593.8779,94.8885
1594.8422,94.8586
1595.8064,94.8617
1596.7706,94.878
1597.7349,94.8836
1598.6991,94.8637
1599.6633,94.8188
1600.6276,94.7632
1601.5918,94.7156
1602.5560,94.6866
1603.5203,94.672
1604.4845,94.6587
1605.4487,94.6385
1606.4130,94.6166
1607.3772,94.6083
1608.3414,94.6265
1609.3057,94.6676
1610.2699,94.7134
1611.2341,94.7533
1612.1984,94.7967
1613.1626,94.858
1614.1268,94.9361
1615.0911,95.0205
1616.0553,95.1087
1617.0195,95.1801
1617.9838,95.1799
1618.9480,95.0946
1619.9122,94.9817
1620.8765,94.908
1621.8407,94.9029
1622.8049,94.9602
1623.7692,95.0521
1624.7334,95.1445
1625.6976,95.217
1626.6619,95.2729
1627.6261,95.3222
1628.5903,95.3658
1629.5546,95.4037
1630.5188,95.4521
1631.4830,95.5353
1632.4473,95.65
1633.4115,95.7415
1634.3757,95.7461
1635.3400,95.6997
1636.3042,95.7112
1637.2684,95.7599
1638.2327,95.7493
1639.1969,95.678
1640.1611,95.6088
1641.1254,95.593
1642.0896,95.6429
1643.0538,95.7264
1644.0181,95.7685
1644.9823,95.6957
1645.9465,95.5354
1646.9108,95.4287
1647.8750,95.4692
1648.8392,95.6544
1649.8035,95.9717
1650.7677,96.382
1651.7319,96.7834
1652.6962,97.0993
1653.6604,97.3173
1654.6246,97.2987
1655.5889,96.9853
1656.5531,96.5716
1657.5173,96.2581
1658.4816,96.1185
1659.4458,96.1227
1660.4100,96.1985
1661.3743,96.2915
1662.3385,96.3822
1663.3027,96.4564
1664.2670,96.4984
1665.2312,96.512
1666.1954,96.5093
1667.1597,96.486
1668.1239,96.4363
1669.0881,96.392
1670.0524,96.4103
1671.0166,96.5051
1671.9808,96.6481
1672.9451,96.8197
1673.9093,97.0038
1674.8735,97.1531
1675.8378,97.1951
1676.8020,97.0865
1677.7662,96.8674
1678.7305,96.6453
1679.6947,96.5235
1680.6589,96.5435
1681.6232,96.6741
1682.5874,96.8586
1683.5516,97.0699
1684.5159,97.2453
1685.4801,97.2525
1686.4443,97.0717
1687.4086,96.8267
1688.3728,96.645
1689.3370,96.5843
1690.3013,96.6397
1691.2655,96.7715
1692.2297,96.9249
1693.1940,97.0384
1694.1582,97.0561
1695.1224,96.96
1696.0867,96.8123
1697.0509,96.7543
1698.0151,96.9075
1698.9794,97.2288
1699.9436,97.5024
1700.9078,97.5279
1701.8721,97.2868
1702.8363,96.9146
1703.8005,96.5757
1704.7648,96.377
1705.7290,96.3381
1706.6932,96.3987
1707.6575,96.4638
1708.6217,96.4684
1709.5859,96.4078
1710.5502,96.3141
1711.5144,96.2175
1712.4786,96.1258
1713.4429,96.0267
1714.4071,95.9136
1715.3713,95.8417
1716.3356,95.9491
1717.2998,96.2853
1718.2640,96.6408
1719.2283,96.7878
1720.1925,96.7256
1721.1567,96.5857
1722.1210,96.4829
1723.0852,96.4636
1724.0494,96.5121
1725.0137,96.5769
1725.9779,96.6046
1726.9421,96.5695
1727.9064,96.4868
1728.8706,96.4003
1729.8348,96.3576
1730.7991,96.389
1731.7633,96.5072
1732.7275,96.713
1733.6918,96.9599
1734.6560,97.1248
1735.6202,97.1207
1736.5845,96.997
1737.5487,96.865
1738.5129,96.7952
1739.4772,96.7887
1740.4414,96.8026
1741.4056,96.7908
1742.3699,96.7346
1743.3341,96.6493
1744.2983,96.5662
1745.2626,96.5111
1746.2268,96.4992
1747.1910,96.5493
1748.1553,96.701
1749.1195,96.9935
1750.0837,97.3936
1751.0480,97.7775
1752.0122,98.0351
1752.9764,98.1547
1753.9407,98.1947
1754.9049,98.2188
1755.8691,98.2624
1756.8334,98.3323
1757.7976,98.4208
1758.7618,98.521
1759.7261,98.634
1760.6903,98.7641
1761.6545,98.9062
1762.6188,99.0401
1763.5830,99.1436
1764.5472,99.2117
1765.5115,99.257
1766.4757,99.2934
1767.4399,99.3226
1768.4042,99.3345
1769.3684,99.3227
1770.3326,99.3044
1771.2969,99.325
1772.2611,99.4144
1773.2253,99.5333
1774.1896,99.6076
1775.1538,99.6107
1776.1180,99.5752
1777.0823,99.5446
1778.0465,99.5399
1779.0107,99.5599
1779.9750,99.5971
1780.9392,99.649
1781.9034,99.716
1782.8677,99.7935
1783.8319,99.8658
1784.7961,99.9108
1785.7604,99.9142
1786.7246,99.883
1787.6888,99.8412
1788.6531,99.8086
1789.6173,99.7852
1790.5815,99.7606
1791.5458,99.7388
1792.5100,99.7325
1793.4742,99.7266
1794.4385,99.6949
1795.4027,99.6448
1796.3669,99.6086
1797.3312,99.6076
1798.2954,99.6392
1799.2596,99.69
1800.2239,99.7501
1801.1881,99.8129
1802.1523,99.8687
1803.1166,99.9064
1804.0808,99.9205
1805.0450,99.9118
1806.0093,99.8892
1806.9735,99.8548
1807.9377,99.8126
1808.9020,99.778
1809.8662,99.7708
1810.8304,99.8022
1811.7947,99.8639
1812.7589,99.9353
1813.7231,99.9994
1814.6874,100.05
1815.6516,100.086
1816.6158,100.108
1817.5801,100.115
1818.5443,100.109
1819.5085,100.093
1820.4728,100.076
1821.4370,100.063
1822.4012,100.055
1823.3655,100.049
1824.3297,100.038
1825.2939,100.014
1826.2582,99.9765
1827.2224,99.9334
1828.1866,99.9076
1829.1509,99.9245
1830.1151,99.9875
1831.0793,100.064
1832.0436,100.111
1833.0078,100.115
1833.9720,100.093
1834.9363,100.067
1835.9005,100.048
1836.8647,100.038
1837.8290,100.035
1838.7932,100.04
1839.7574,100.06
1840.7217,100.096
1841.6859,100.133
1842.6501,100.149
1843.6144,100.138
1844.5786,100.116
1845.5428,100.092
1846.5071,100.07
1847.4713,100.06
1848.4355,100.076
1849.3998,100.121
1850.3640,100.179
1851.3282,100.229
1852.2925,100.257
1853.2567,100.262
1854.2209,100.251
1855.1852,100.232
1856.1494,100.212
1857.1136,100.192
1858.0779,100.176
1859.0421,100.17
1860.0063,100.173
1860.9706,100.177
1861.9348,100.167
1862.8990,100.132
1863.8633,100.066
1864.8275,99.9733
1865.7917,99.8675
1866.7560,99.7785
1867.7202,99.755
1868.6844,99.8287
1869.6487,99.9688
1870.6129,100.103
1871.5771,100.187
1872.5414,100.222
1873.5056,100.233
1874.4698,100.238
1875.4341,100.242
1876.3983,100.245
1877.3625,100.245
1878.3268,100.244
1879.2910,100.241
1880.2552,100.236
1881.2195,100.227
1882.1837,100.212
1883.1479,100.191
1884.1122,100.166
1885.0764,100.14
1886.0406,100.12
1887.0049,100.106
1887.9691,100.101
1888.9333,100.104
1889.8976,100.11
1890.8618,100.11
1891.8260,100.098
1892.7903,100.079
1893.7545,100.063
1894.7188,100.063
1895.6830,100.082
1896.6472,100.115
1897.6115,100.147
1898.5757,100.168
1899.5399,100.174
1900.5042,100.168
1901.4684,100.157
1902.4326,100.144
1903.3969,100.126
1904.3611,100.099
1905.3253,100.059
1906.2896,100.01
1907.2538,99.9638
1908.2180,99.9377
1909.1823,99.9429
1910.1465,99.9763
1911.1107,100.02
1912.0750,100.057
1913.0392,100.078
1914.0034,100.087
1914.9677,100.091
1915.9319,100.092
1916.8961,100.086
1917.8604,100.066
1918.8246,100.025
1919.7888,99.9642
1920.7531,99.9019
1921.7173,99.863
1922.6815,99.866
1923.6458,99.9108
1924.6100,99.9776
1925.5742,100.04
1926.5385,100.082
1927.5027,100.099
1928.4669,100.099
1929.4312,100.09
1930.3954,100.079
1931.3596,100.068
1932.3239,100.06
1933.2881,100.057
1934.2523,100.059
1935.2166,100.065
1936.1808,100.067
1937.1450,100.059
1938.1093,100.036
1939.0735,99.9979
1940.0377,99.9493
1941.0020,99.9015
1941.9662,99.8699
1942.9304,99.8652
1943.8947,99.8855
1944.8589,99.9194
1945.8231,99.9564
1946.7874,99.9916
1947.7516,100.023
1948.7158,100.047
1949.6801,100.062
1950.6443,100.065
1951.6085,100.06
1952.5728,100.05
1953.5370,100.043
1954.5012,100.043
1955.4655,100.049
1956.4297,100.057
1957.3939,100.064
1958.3582,100.067
1959.3224,100.066
1960.2866,100.062
1961.2509,100.053
1962.2151,100.037
1963.1793,100.01
1964.1436,99.9764
1965.1078,99.9446
1966.0720,99.9278
1967.0363,99.9362
1968.0005,99.9689
1968.9647,100.014
1969.9290,100.055
1970.8932,100.083
1971.8574,100.095
1972.8217,100.096
1973.7859,100.092
1974.7501,100.09
1975.7144,100.09
1976.6786,100.091
1977.6428,100.092
1978.6071,100.092
1979.5713,100.091
1980.5355,100.091
1981.4998,100.091
1982.4640,100.088
1983.4282,100.08
1984.3925,100.066
1985.3567,100.044
1986.3209,100.015
1987.2852,99.9825
1988.2494,99.9495
1989.2136,99.921
1990.1779,99.9033
1991.1421,99.9028
1992.1063,99.9214
1993.0706,99.9538
1994.0348,99.9894
1994.9990,100.019
1995.9633,100.036
1996.9275,100.044
1997.8917,100.045
1998.8560,100.045
1999.8202,100.048
2000.7844,100.052
2001.7487,100.057
2002.7129,100.059
2003.6771,100.054
2004.6414,100.043
2005.6056,100.027
2006.5698,100.013
2007.5341,100.004
2008.4983,100.002
2009.4625,100.006
2010.4268,100.013
2011.3910,100.014
2012.3552,100.004
2013.3195,99.9808
2014.2837,99.9474
2015.2479,99.9134
2016.2122,99.8903
2017.1764,99.8867
2018.1406,99.9027
2019.1049,99.9303
2020.0691,99.9585
2021.0333,99.979
2021.9976,99.9892
2022.9618,99.9917
2023.9260,99.9911
2024.8903,99.9911
2025.8545,99.9932
2026.8187,99.9964
2027.7830,99.9989
2028.7472,99.999
2029.7114,99.9961
2030.6757,99.9907
2031.6399,99.9838
2032.6041,99.9772
2033.5684,99.9725
2034.5326,99.9697
2035.4968,99.9666
2036.4611,99.9601
2037.4253,99.947
2038.3895,99.9271
2039.3538,99.9046
2040.3180,99.8865
2041.2822,99.8794
2042.2465,99.8856
2043.2107,99.9018
2044.1749,99.9211
2045.1392,99.9369
2046.1034,99.9457
2047.0676,99.9477
2048.0320,99.9454
2048.9961,99.9414
2049.9604,99.9373
2050.9246,99.9334
2051.8889,99.9295
2052.8530,99.9254
2053.8174,99.9212
2054.7815,99.9177
2055.7458,99.9153
2056.7100,99.9141
2057.6743,99.913
2058.6384,99.91
2059.6028,99.9021
2060.5669,99.8876
2061.5313,99.8671
2062.4954,99.8449
2063.4597,99.8275
2064.4238,99.8213
2065.3882,99.8285
2066.3523,99.8463
2067.3167,99.8678
2068.2808,99.8858
2069.2451,99.8963
2070.2092,99.8991
2071.1736,99.8969
2072.1377,99.8933
2073.1021,99.8903
2074.0662,99.8883
2075.0305,99.8861
2075.9946,99.8829
2076.9590,99.8786
2077.9231,99.8738
2078.8875,99.8696
2079.8516,99.8664
2080.8159,99.8638
2081.7800,99.8612
2082.7444,99.8577
2083.7085,99.8529
2084.6729,99.8471
2085.6370,99.8407
2086.6013,99.8346
2087.5654,99.8296
2088.5298,99.8265
2089.4939,99.8258
2090.4583,99.8273
2091.4224,99.83
2092.3867,99.8328
2093.3508,99.8346
2094.3152,99.8351
2095.2793,99.8344
2096.2437,99.8325
2097.2078,99.8296
2098.1721,99.8253
2099.1362,99.8196
2100.1006,99.8121
2101.0647,99.8067
2102.0291,99.8034
2102.9932,99.8029
2103.9575,99.8046
2104.9216,99.8066
2105.8860,99.8073
2106.8501,99.8056
2107.8145,99.8014
2108.7786,99.7948
2109.7429,99.786
2110.7070,99.7755
2111.6714,99.7646
2112.6355,99.7559
2113.5999,99.7521
2114.5640,99.7548
2115.5283,99.7634
2116.4924,99.7748
2117.4568,99.7847
2118.4209,99.7897
2119.3853,99.7889
2120.3494,99.7837
2121.3137,99.7766
2122.2778,99.77
2123.2422,99.7651
2124.2063,99.7618
2125.1707,99.7597
2126.1348,99.7585
2127.0991,99.7588
2128.0632,99.761
2129.0276,99.765
2129.9917,99.7695
2130.9561,99.7722
2131.9202,99.7706
2132.8845,99.7638
2133.8486,99.7533
2134.8130,99.743
2135.7771,99.7373
2136.7415,99.7393
2137.7056,99.749
2138.6699,99.7632
2139.6340,99.777
2140.5984,99.7861
2141.5625,99.7886
2142.5269,99.7852
2143.4910,99.779
2144.4553,99.7738
2145.4194,99.7724
2146.3838,99.7757
2147.3479,99.7828
2148.3123,99.7912
2149.2764,99.798
2150.2407,99.8007
2151.2048,99.7988
2152.1692,99.7931
2153.1333,99.7859
2154.0977,99.7798
2155.0618,99.7764
2156.0261,99.7764
2156.9902,99.7788
2157.9546,99.7826
2158.9187,99.7865
2159.8831,99.79
2160.8472,99.7934
2161.8115,99.797
2162.7756,99.8009
2163.7400,99.8047
2164.7041,99.807
2165.6685,99.8067
2166.6326,99.8034
2167.5969,99.7976
2168.5610,99.7913
2169.5254,99.7865
2170.4895,99.7848
2171.4539,99.7867
2172.4180,99.7917
2173.3823,99.7985
2174.3464,99.8058
2175.3108,99.8126
2176.2749,99.8182
2177.2393,99.8219
2178.2034,99.8232
2179.1677,99.8216
2180.1318,99.8171
2181.0962,99.8107
2182.0603,99.8043
2183.0247,99.7996
2183.9888,99.7979
2184.9531,99.7998
2185.9172,99.8043
2186.8816,99.8101
2187.8457,99.8157
2188.8101,99.8202
2189.7742,99.8233
2190.7385,99.8255
2191.7026,99.8274
2192.6670,99.8294
2193.6311,99.8316
2194.5955,99.8332
2195.5596,99.8335
2196.5239,99.8319
2197.4880,99.8282
2198.4524,99.8231
2199.4165,99.8178
2200.3809,99.8137
2201.3450,99.8119
2202.3093,99.8126
2203.2734,99.8157
2204.2378,99.8201
2205.2019,99.8247
2206.1663,99.8286
2207.1304,99.8313
2208.0947,99.8325
2209.0588,99.8323
2210.0232,99.8309
2210.9873,99.8282
2211.9517,99.8245
2212.9158,99.8205
2213.8801,99.817
2214.8442,99.8149
2215.8086,99.8145
2216.7727,99.8148
2217.7371,99.8145
2218.7012,99.8123
2219.6655,99.808
2220.6296,99.803
2221.5940,99.7993
2222.5581,99.7983
2223.5225,99.8
2224.4866,99.8028
2225.4509,99.804
2226.4150,99.8014
2227.3794,99.795
2228.3435,99.786
2229.3079,99.7767
2230.2720,99.7689
2231.2363,99.7634
2232.2004,99.7594
2233.1648,99.7557
2234.1289,99.7515
2235.0933,99.7468
2236.0574,99.7423
2237.0217,99.7388
2237.9858,99.7363
2238.9502,99.734
2239.9143,99.7305
2240.8787,99.7248
2241.8428,99.7165
2242.8071,99.7063
2243.7712,99.6958
2244.7356,99.6864
2245.6997,99.679
2246.6641,99.6737
2247.6282,99.6698
2248.5925,99.6662
2249.5566,99.6616
2250.5210,99.6553
2251.4851,99.6471
2252.4495,99.6369
2253.4136,99.6252
2254.3779,99.6121
2255.3420,99.5979
2256.3064,99.5831
2257.2705,99.5685
2258.2349,99.5549
2259.1990,99.5431
2260.1633,99.5335
2261.1274,99.5262
2262.0918,99.5211
2263.0559,99.5179
2264.0203,99.5163
2264.9844,99.5156
2265.9487,99.5145
2266.9128,99.5118
2267.8772,99.5064
2268.8413,99.4987
2269.8057,99.4905
2270.7698,99.484
2271.7341,99.4812
2272.6982,99.4825
2273.6626,99.4867
2274.6267,99.4918
2275.5911,99.4968
2276.5552,99.5021
2277.5195,99.5091
2278.4836,99.519
2279.4480,99.5311
2280.4121,99.5429
2281.3765,99.5502
2282.3406,99.5493
2283.3049,99.5378
2284.2690,99.5156
2285.2334,99.4846
2286.1975,99.4485
2287.1619,99.4109
2288.1260,99.3744
2289.0903,99.3391
2290.0544,99.3038
2291.0188,99.2672
2291.9829,99.2302
2292.9473,99.1956
2293.9114,99.1678
2294.8757,99.1496
2295.8398,99.1413
2296.8042,99.1411
2297.7683,99.1469
2298.7327,99.1587
2299.6968,99.1782
2300.6611,99.2077
2301.6252,99.2461
2302.5896,99.2882
2303.5537,99.3256
2304.5181,99.3502
2305.4822,99.3589
2306.4465,99.3562
2307.4106,99.3539
2308.3750,99.3675
2309.3391,99.4093
2310.3035,99.4828
2311.2676,99.5804
2312.2319,99.6862
2313.1960,99.7836
2314.1604,99.8632
2315.1245,99.9277
2316.0889,99.9887
2317.0530,100.061
2318.0173,100.152
2318.9814,100.256
2319.9458,100.35
2320.9099,100.398
2321.8743,100.366
2322.8384,100.243
2323.8027,100.054
2324.7668,99.8543
2325.7312,99.7062
2326.6953,99.654
2327.6597,99.7034
2328.6238,99.8181
2329.5881,99.9336
2330.5522,99.9862
2331.5166,99.9435
2332.4807,99.8185
2333.4451,99.6581
2334.4092,99.5157
2335.3735,99.4261
2336.3376,99.3927
2337.3020,99.3911
2338.2661,99.3827
2339.2305,99.3398
2340.1946,99.2604
2341.1589,99.1882
2342.1230,99.2056
2343.0874,99.3671
2344.0515,99.5987
2345.0159,99.7143
2345.9800,99.5996
2346.9443,99.3223
2347.9084,99.0503
2348.8728,98.9246
2349.8369,98.9921
2350.8013,99.1981
2351.7654,99.4193
2352.7297,99.5353
2353.6938,99.5095
2354.6582,99.399
2355.6223,99.2699
2356.5867,99.1331
2357.5508,98.9795
2358.5151,98.8345
2359.4792,98.7502
2360.4436,98.7532
2361.4077,98.8274
2362.3721,98.9461
2363.3362,99.1019
2364.3005,99.2999
2365.2646,99.5348
2366.2290,99.785
2367.1931,100.025
2368.1575,100.241
2369.1216,100.428
2370.0859,100.588
2371.0500,100.721
2372.0144,100.825
2372.9785,100.889
2373.9429,100.903
2374.9070,100.857
2375.8713,100.749
2376.8354,100.587
2377.7998,100.389
2378.7639,100.182
2379.7283,99.9898
2380.6924,99.8314
2381.6567,99.7179
2382.6208,99.6506
2383.5852,99.6236
2384.5493,99.6263
2385.5137,99.6469
2386.4778,99.6747
2387.4421,99.7021
2388.4063,99.7246
2389.3706,99.7403
2390.3347,99.7496
2391.2991,99.754
2392.2632,99.7556
2393.2275,99.756
2394.1917,99.7566
2395.1560,99.7578
2396.1201,99.7599
2397.0845,99.763
2398.0486,99.7668
2399.0129,99.7709
2399.9771,99.7744
2400.9414,99.7758
2401.9055,99.7743
2402.8699,99.7701
2403.8340,99.7652
2404.7983,99.7622
2405.7625,99.763
2406.7268,99.7678
2407.6909,99.7748
2408.6553,99.7813
2409.6194,99.7857
2410.5837,99.7879
2411.5479,99.7897
2412.5122,99.7927
2413.4763,99.7974
2414.4407,99.8029
2415.4048,99.8073
2416.3691,99.8096
2417.3333,99.8101
2418.2976,99.8101
2419.2617,99.8108
2420.2261,99.812
2421.1902,99.8126
2422.1545,99.8112
2423.1187,99.8079
2424.0830,99.8043
2425.0471,99.8031
2426.0115,99.806
2426.9756,99.8132
2427.9399,99.8225
2428.9041,99.8318
2429.8684,99.8392
2430.8325,99.8443
2431.7969,99.8475
2432.7610,99.8489
2433.7253,99.8484
2434.6895,99.8456
2435.6538,99.8409
2436.6179,99.8359
2437.5823,99.8329
2438.5464,99.834
2439.5107,99.84
2440.4749,99.8499
2441.4392,99.8615
2442.4033,99.872
2443.3677,99.879
2444.3318,99.8813
2445.2961,99.8787
2446.2603,99.8723
2447.2246,99.8643
2448.1887,99.857
2449.1531,99.8529
2450.1172,99.8531
2451.0815,99.8578
2452.0457,99.8656
2453.0100,99.8744
2453.9741,99.8819
2454.9385,99.8865
2455.9026,99.8874
2456.8669,99.8854
2457.8311,99.8823
2458.7954,99.8801
2459.7595,99.8805
2460.7239,99.8838
2461.6880,99.8888
2462.6523,99.8942
2463.6165,99.8984
2464.5808,99.9008
2465.5449,99.9017
2466.5093,99.9017
2467.4734,99.9015
2468.4377,99.9013
2469.4019,99.9014
2470.3662,99.902
2471.3303,99.9034
2472.2947,99.9058
2473.2588,99.9094
2474.2231,99.9137
2475.1873,99.918
2476.1516,99.9218
2477.1157,99.9249
2478.0801,99.9279
2479.0442,99.931
2480.0085,99.9346
2480.9727,99.9381
2481.9370,99.9407
2482.9011,99.9415
2483.8655,99.94
2484.8296,99.9368
2485.7939,99.9331
2486.7581,99.9303
2487.7224,99.9294
2488.6865,99.9308
2489.6509,99.9339
2490.6150,99.9375
2491.5793,99.9404
2492.5435,99.9421
2493.5078,99.9433
2494.4719,99.9456
2495.4363,99.9505
2496.4004,99.9584
2497.3647,99.9682
2498.3289,99.977
2499.2932,99.9821
2500.2573,99.9825
2501.2217,99.9796
2502.1858,99.9766
2503.1501,99.9766
2504.1143,99.9807
2505.0786,99.9875
2506.0427,99.9942
2507.0071,99.998
2507.9712,99.9977
2508.9355,99.9941
2509.8997,99.9894
2510.8640,99.9855
2511.8281,99.9837
2512.7925,99.9846
2513.7566,99.9883
2514.7209,99.9948
2515.6851,100.004
2516.6494,100.014
2517.6135,100.024
2518.5779,100.031
2519.5420,100.036
2520.5063,100.038
2521.4705,100.039
2522.4348,100.041
2523.3989,100.043
2524.3633,100.045
2525.3274,100.047
2526.2917,100.047
2527.2559,100.046
2528.2202,100.046
2529.1843,100.046
2530.1487,100.048
2531.1128,100.049
2532.0771,100.049
2533.0413,100.046
2534.0056,100.043
2534.9697,100.039
2535.9341,100.035
2536.8982,100.034
2537.8625,100.034
2538.8267,100.036
2539.7910,100.042
2540.7551,100.049
2541.7195,100.058
2542.6836,100.067
2543.6479,100.074
2544.6121,100.078
2545.5764,100.079
2546.5405,100.078
2547.5049,100.076
2548.4690,100.074
2549.4333,100.072
2550.3975,100.071
2551.3618,100.073
2552.3259,100.077
2553.2903,100.083
2554.2544,100.091
2555.2188,100.099
2556.1829,100.105
2557.1472,100.11
2558.1113,100.113
2559.0757,100.115
2560.0398,100.117
2561.0042,100.119
2561.9683,100.12
2562.9326,100.12
2563.8967,100.119
2564.8611,100.117
2565.8252,100.115
2566.7896,100.116
2567.7537,100.118
2568.7180,100.121
2569.6821,100.124
2570.6465,100.127
2571.6106,100.129
2572.5750,100.13
2573.5391,100.13
2574.5034,100.129
2575.4675,100.125
2576.4319,100.121
2577.3960,100.118
2578.3604,100.119
2579.3245,100.123
2580.2888,100.131
2581.2529,100.141
2582.2173,100.149
2583.1814,100.153
2584.1458,100.154
2585.1099,100.152
2586.0742,100.149
2587.0383,100.145
2588.0027,100.14
2588.9668,100.136
2589.9312,100.133
2590.8953,100.131
2591.8596,100.131
2592.8237,100.133
2593.7881,100.135
2594.7522,100.138
2595.7166,100.14
2596.6807,100.142
2597.6450,100.144
2598.6091,100.146
2599.5735,100.149
2600.5376,100.152
2601.5020,100.155
2602.4661,100.157
2603.4304,100.158
2604.3945,100.158
2605.3589,100.157
2606.3230,100.157
2607.2874,100.158
2608.2515,100.159
2609.2158,100.161
2610.1799,100.164
2611.1443,100.167
2612.1084,100.171
2613.0728,100.175
2614.0369,100.178
2615.0012,100.18
2615.9653,100.179
2616.9297,100.175
2617.8938,100.17
2618.8582,100.166
2619.8223,100.163
2620.7866,100.163
2621.7507,100.164
2622.7151,100.165
2623.6792,100.166
2624.6436,100.166
2625.6077,100.165
2626.5720,100.164
2627.5361,100.164
2628.5005,100.165
2629.4646,100.164
2630.4290,100.161
2631.3931,100.156
2632.3574,100.15
2633.3215,100.147
2634.2859,100.147
2635.2500,100.151
2636.2144,100.157
2637.1785,100.164
2638.1428,100.171
2639.1069,100.176
2640.0713,100.18
2641.0354,100.184
2641.9998,100.187
2642.9639,100.189
2643.9282,100.189
2644.8923,100.187
2645.8567,100.185
2646.8208,100.184
2647.7852,100.182
2648.7493,100.179
2649.7136,100.174
2650.6777,100.166
2651.6421,100.157
2652.6062,100.148
2653.5706,100.141
2654.5347,100.138
2655.4990,100.139
2656.4631,100.141
2657.4275,100.144
2658.3916,100.144
2659.3560,100.142
2660.3201,100.138
2661.2844,100.134
2662.2485,100.133
2663.2129,100.135
2664.1770,100.139
2665.1414,100.145
2666.1055,100.151
2667.0698,100.155
2668.0339,100.157
2668.9983,100.157
2669.9624,100.157
2670.9268,100.157
2671.8909,100.16
2672.8552,100.164
2673.8193,100.17
2674.7837,100.177
2675.7478,100.185
2676.7122,100.19
2677.6763,100.193
2678.6406,100.191
2679.6047,100.186
2680.5691,100.178
2681.5332,100.168
2682.4976,100.161
2683.4617,100.157
2684.4260,100.157
2685.3901,100.159
2686.3545,100.16
2687.3186,100.16
2688.2830,100.157
2689.2471,100.154
2690.2114,100.152
2691.1755,100.152
2692.1399,100.154
2693.1040,100.156
2694.0684,100.156
2695.0325,100.153
2695.9968,100.148
2696.9609,100.141
2697.9253,100.137
2698.8894,100.135
2699.8538,100.136
2700.8179,100.137
2701.7822,100.137
2702.7463,100.133
2703.7107,100.126
2704.6748,100.115
2705.6392,100.104
2706.6033,100.092
2707.5676,100.081
2708.5317,100.074
2709.4961,100.07
2710.4602,100.07
2711.4246,100.072
2712.3887,100.076
2713.3530,100.077
2714.3171,100.075
2715.2815,100.068
2716.2456,100.06
2717.2100,100.05
2718.1741,100.043
2719.1384,100.039
2720.1025,100.039
2721.0669,100.041
2722.0310,100.044
2722.9954,100.045
2723.9595,100.044
2724.9238,100.039
2725.8879,100.032
2726.8523,100.026
2727.8164,100.02
2728.7808,100.014
2729.7449,100.009
2730.7092,100.003
2731.6733,99.997
2732.6377,99.9921
2733.6018,99.9892
2734.5662,99.9879
2735.5303,99.9872
2736.4946,99.9853
2737.4587,99.9806
2738.4231,99.9728
2739.3872,99.9624
2740.3516,99.951
2741.3157,99.9406
2742.2800,99.9332
2743.2441,99.9301
2744.2085,99.9321
2745.1726,99.9383
2746.1370,99.9467
2747.1011,99.9547
2748.0654,99.9597
2749.0295,99.9611
2749.9939,99.9594
2750.9580,99.957
2751.9224,99.9556
2752.8865,99.9559
2753.8508,99.9566
2754.8149,99.9554
2755.7793,99.9499
2756.7434,99.9391
2757.7078,99.9242
2758.6719,99.9077
2759.6362,99.8932
2760.6003,99.8833
2761.5647,99.8793
2762.5288,99.8799
2763.4932,99.8824
2764.4573,99.8838
2765.4216,99.8819
2766.3857,99.8773
2767.3501,99.8722
2768.3142,99.8697
2769.2786,99.8712
2770.2427,99.8757
2771.2070,99.8798
2772.1711,99.8803
2773.1355,99.8758
2774.0996,99.868
2775.0640,99.8602
2776.0281,99.8549
2776.9924,99.8521
2777.9565,99.8491
2778.9209,99.842
2779.8850,99.8284
2780.8494,99.8091
2781.8135,99.7876
2782.7778,99.7686
2783.7419,99.7558
2784.7063,99.7503
2785.6704,99.7505
2786.6348,99.7529
2787.5989,99.7531
2788.5632,99.7481
2789.5273,99.7364
2790.4917,99.7188
2791.4558,99.6982
2792.4202,99.6779
2793.3843,99.6609
2794.3486,99.6482
2795.3127,99.6392
2796.2771,99.6321
2797.2412,99.6247
2798.2056,99.6155
2799.1697,99.6038
2800.1340,99.5903
2801.0981,99.5757
2802.0625,99.561
2803.0266,99.5469
2803.9910,99.5338
2804.9551,99.5212
2805.9194,99.5084
2806.8835,99.4941
2807.8479,99.4771
2808.8120,99.4568
2809.7764,99.4336
2810.7405,99.4087
2811.7048,99.3836
2812.6689,99.3594
2813.6333,99.3362
2814.5974,99.3133
2815.5618,99.2897
2816.5259,99.2645
2817.4902,99.2365
2818.4543,99.2046
2819.4187,99.1678
2820.3828,99.1256
2821.3472,99.0791
2822.3113,99.031
2823.2756,98.985
2824.2397,98.944
2825.2041,98.9084
2826.1682,98.8755
2827.1326,98.8405
2828.0967,98.7988
2829.0610,98.7479
2830.0251,98.6887
2830.9895,98.6242
2831.9536,98.5583
2832.9180,98.4941
2833.8821,98.4325
2834.8464,98.3727
2835.8105,98.3132
2836.7749,98.2521
2837.7390,98.1882
2838.7034,98.1213
2839.6675,98.0522
2840.6318,97.9828
2841.5959,97.9156
2842.5603,97.8523
2843.5244,97.7933
2844.4888,97.7366
2845.4529,97.679
2846.4172,97.6166
2847.3813,97.547
2848.3457,97.4704
2849.3098,97.3891
2850.2742,97.3059
2851.2383,97.2227
2852.2026,97.1397
2853.1667,97.0561
2854.1311,96.9713
2855.0952,96.8853
2856.0596,96.7989
2857.0237,96.7116
2857.9880,96.6217
2858.9521,96.5262
2859.9165,96.4223
2860.8806,96.3093
2861.8450,96.1893
2862.8091,96.0667
2863.7734,95.9466
2864.7375,95.8336
2865.7019,95.7304
2866.6660,95.6379
2867.6304,95.5555
2868.5945,95.4825
2869.5588,95.4175
2870.5229,95.3591
2871.4873,95.3054
2872.4514,95.2535
2873.4158,95.1999
2874.3799,95.1413
2875.3442,95.0753
2876.3083,95.001
2877.2727,94.919
2878.2368,94.8306
2879.2012,94.7379
2880.1653,94.6436
2881.1296,94.5515
2882.0938,94.4667
2883.0581,94.3948
2884.0222,94.3402
2884.9866,94.3037
2885.9507,94.282
2886.9150,94.2671
2887.8792,94.2496
2888.8435,94.2215
2889.8076,94.1813
2890.7720,94.1347
2891.7361,94.0925
2892.7004,94.0638
2893.6646,94.0477
2894.6289,94.0307
2895.5930,93.9908
2896.5574,93.9107
2897.5215,93.7899
2898.4858,93.6501
2899.4500,93.5275
2900.4143,93.4573
2901.3784,93.4565
2902.3428,93.5176
2903.3069,93.614
2904.2712,93.7137
2905.2354,93.7926
2906.1997,93.8412
2907.1638,93.8633
2908.1282,93.8704
2909.0923,93.8757
2910.0566,93.8909
2911.0208,93.9232
2911.9851,93.9741
2912.9492,94.0387
2913.9136,94.1068
2914.8777,94.1669
2915.8420,94.2106
2916.8062,94.2351
2917.7705,94.2438
2918.7346,94.2427
2919.6990,94.2374
2920.6631,94.232
2921.6274,94.2289
2922.5916,94.2298
2923.5559,94.2365
2924.5200,94.2496
2925.4844,94.2684
2926.4485,94.2909
2927.4128,94.3137
2928.3770,94.334
2929.3413,94.3497
2930.3054,94.3602
2931.2698,94.3666
2932.2339,94.3713
2933.1982,94.3773
2934.1624,94.3872
2935.1267,94.4022
2936.0908,94.4213
2937.0552,94.4418
2938.0193,94.4606
2938.9836,94.476
2939.9478,94.4887
2940.9121,94.502
2941.8762,94.5209
2942.8406,94.549
2943.8047,94.5871
2944.7690,94.6314
2945.7332,94.675
2946.6975,94.7103
2947.6616,94.7319
2948.6260,94.7391
2949.5901,94.7353
2950.5544,94.726
2951.5186,94.7155
2952.4829,94.705
2953.4470,94.6931
2954.4114,94.677
2955.3755,94.6553
2956.3398,94.6292
2957.3040,94.6013
2958.2683,94.5742
2959.2324,94.5482
2960.1968,94.5203
2961.1609,94.4852
2962.1252,94.4378
2963.0894,94.3757
2964.0537,94.3007
2965.0178,94.2178
2965.9822,94.1337
2966.9463,94.0546
2967.9106,93.9857
2968.8748,93.9311
2969.8391,93.8944
2970.8032,93.8789
2971.7676,93.886
2972.7317,93.9146
2973.6960,93.9599
2974.6602,94.0151
2975.6245,94.0733
2976.5886,94.1296
2977.5530,94.1824
2978.5171,94.2327
2979.4814,94.2824
2980.4456,94.3315
2981.4099,94.375
2982.3740,94.4036
2983.3384,94.4072
2984.3025,94.3826
2985.2668,94.3408
2986.2310,94.3085
2987.1953,94.3206
2988.1594,94.4052
2989.1238,94.5692
2990.0879,94.7928
2991.0522,95.0374
2992.0164,95.2628
2992.9807,95.4442
2993.9448,95.5791
2994.9092,95.6834
2995.8733,95.7778
2996.8376,95.8769
2997.8018,95.9842
2998.7661,96.0962
2999.7302,96.2085
3000.6946,96.321
3001.6587,96.4376
3002.6230,96.5632
3003.5872,96.6994
3004.5515,96.8429
3005.5156,96.9867
3006.4800,97.1232
3007.4441,97.2477
3008.4084,97.3602
3009.3726,97.4657
3010.3369,97.5722
3011.3010,97.6868
3012.2654,97.8128
3013.2295,97.948
3014.1938,98.0857
3015.1580,98.2181
3016.1223,98.3395
3017.0864,98.4482
3018.0508,98.5456
3019.0149,98.6354
3019.9792,98.7209
3020.9434,98.8049
3021.9077,98.8891
3022.8718,98.9745
3023.8362,99.0605
3024.8003,99.1436
3025.7646,99.2186
3026.7288,99.2799
3027.6931,99.325
3028.6572,99.3568
3029.6216,99.3834
3030.5857,99.4155
3031.5500,99.461
3032.5142,99.5214
3033.4785,99.5912
3034.4426,99.6615
3035.4070,99.7248
3036.3711,99.7783
3037.3354,99.8236
3038.2996,99.8642
3039.2639,99.9023
3040.2280,99.9371
3041.1924,99.965
3042.1565,99.9825
3043.1208,99.9883
3044.0850,99.9849
3045.0493,99.9779
3046.0134,99.9729
3046.9778,99.9736
3047.9419,99.9793
3048.9063,99.9768
3049.8704,99.9673
3050.8347,99.9494
3051.7988,99.9233
3052.7632,99.8933
3053.7273,99.8659
3054.6917,99.8468
3055.6558,99.8384
3056.6201,99.8388
3057.5842,99.8423
3058.5486,99.8414
3059.5127,99.8297
3060.4771,99.8035
3061.4412,99.7643
3062.4055,99.718
3063.3696,99.6734
3064.3340,99.6392
3065.2981,99.6201
3066.2625,99.615
3067.2266,99.6181
3068.1909,99.6215
3069.1550,99.6197
3070.1194,99.6105
3071.0835,99.5951
3072.0479,99.5759
3073.0120,99.5539
3073.9763,99.5286
3074.9404,99.4986
3075.9048,99.4635
3076.8689,99.4256
3077.8333,99.3889
3078.7974,99.358
3079.7617,99.3354
3080.7258,99.3208
3081.6902,99.3115
3082.6543,99.3042
3083.6187,99.2963
3084.5828,99.2875
3085.5471,99.2782
3086.5112,99.2687
3087.4756,99.2577
3088.4397,99.243
3089.4041,99.2219
3090.3682,99.1933
3091.3325,99.1587
3092.2966,99.1218
3093.2610,99.0869
3094.2251,99.0563
3095.1895,99.029
3096.1536,99.0018
3097.1179,98.9714
3098.0820,98.9371
3099.0464,98.9023
3100.0105,98.8726
3100.9749,98.8522
3101.9390,98.8416
3102.9033,98.8367
3103.8674,98.8313
3104.8318,98.8206
3105.7959,98.803
3106.7603,98.7801
3107.7244,98.754
3108.6887,98.7256
3109.6528,98.6937
3110.6172,98.6563
3111.5813,98.6132
3112.5457,98.5665
3113.5098,98.5208
3114.4741,98.4804
3115.4382,98.4473
3116.4026,98.4209
3117.3667,98.3983
3118.3311,98.3767
3119.2952,98.355
3120.2595,98.3334
3121.2236,98.3129
3122.1880,98.2949
3123.1521,98.28
3124.1165,98.2686
3125.0806,98.2598
3126.0449,98.2506
3127.0090,98.2358
3127.9734,98.2096
3128.9375,98.169
3129.9019,98.1165
3130.8660,98.0608
3131.8303,98.0131
3132.7944,97.9819
3133.7588,97.9688
3134.7229,97.968
3135.6873,97.9696
3136.6514,97.9652
3137.6157,97.9509
3138.5798,97.9276
3139.5442,97.8991
3140.5083,97.8688
3141.4727,97.8383
3142.4368,97.8078
3143.4011,97.7763
3144.3652,97.7437
3145.3296,97.711
3146.2937,97.6806
3147.2581,97.6552
3148.2222,97.6364
3149.1865,97.6224
3150.1506,97.6085
3151.1150,97.5883
3152.0791,97.5577
3153.0435,97.517
3154.0076,97.4716
3154.9719,97.4288
3155.9360,97.3939
3156.9004,97.3673
3157.8645,97.3455
3158.8289,97.3236
3159.7930,97.2983
3160.7573,97.269
3161.7214,97.2371
3162.6858,97.2037
3163.6499,97.1688
3164.6143,97.1323
3165.5784,97.0949
3166.5427,97.059
3167.5068,97.0274
3168.4712,97.0016
3169.4353,97.0617
3170.3997,97.0402
3171.3638,97.0134
3172.3281,96.9781
3173.2922,96.9346
3174.2566,96.8861
3175.2207,96.8379
3176.1851,96.7948
3177.1492,96.76
3178.1135,96.7331
3179.0776,96.7111
3180.0420,96.689
3181.0061,96.6631
3181.9705,96.6326
3182.9346,96.5996
3183.8989,96.568
3184.8630,96.5408
3185.8274,96.5179
3186.7915,96.496
3187.7559,96.471
3188.7200,96.4407
3189.6843,96.4062
3190.6484,96.3712
3191.6128,96.3388
3192.5769,96.31
3193.5413,96.2828
3194.5054,96.2544
3195.4697,96.2233
3196.4338,96.1904
3197.3982,96.1578
3198.3623,96.1273
3199.3267,96.0991
3200.2908,96.0728
3201.2551,96.048
3202.2192,96.0243
3203.1836,96.0008
3204.1477,95.9752
3205.1121,95.9445
3206.0762,95.907
3207.0405,95.8638
3208.0046,95.8188
3208.9690,95.7762
3209.9331,95.7379
3210.8975,95.7027
3211.8616,95.668
3212.8259,95.6332
3213.7900,95.6007
3214.7544,95.574
3215.7185,95.5549
3216.6829,95.5409
3217.6470,95.5268
3218.6113,95.5076
3219.5754,95.4825
3220.5398,95.4542
3221.5039,95.4272
3222.4683,95.4035
3223.4324,95.3823
3224.3967,95.3608
3225.3608,95.3371
3226.3252,95.3117
3227.2893,95.2868
3228.2537,95.2646
3229.2178,95.2447
3230.1821,95.2249
3231.1462,95.2025
3232.1106,95.1768
3233.0747,95.1493
3234.0391,95.1232
3235.0032,95.1006
3235.9675,95.0817
3236.9316,95.0637
3237.8960,95.0428
3238.8601,95.0158
3239.8245,94.9821
3240.7886,94.9443
3241.7529,94.907
3242.7170,94.8751
3243.6814,94.8516
3244.6455,94.8362
3245.6099,94.8253
3246.5740,94.8139
3247.5383,94.7981
3248.5024,94.7769
3249.4668,94.7518
3250.4309,94.7253
3251.3953,94.6994
3252.3594,94.6741
3253.3237,94.6482
3254.2878,94.6205
3255.2522,94.5912
3256.2163,94.5626
3257.1807,94.5373
3258.1448,94.517
3259.1091,94.5009
3260.0732,94.4856
3261.0376,94.4675
3262.0017,94.4451
3262.9661,94.42
3263.9302,94.3961
3264.8945,94.3764
3265.8586,94.3606
3266.8230,94.3442
3267.7871,94.321
3268.7515,94.2869
3269.7156,94.243
3270.6799,94.1959
3271.6440,94.1541
3272.6084,94.1247
3273.5725,94.1094
3274.5369,94.1049
3275.5010,94.1054
3276.4653,94.1056
3277.4294,94.103
3278.3938,94.0972
3279.3579,94.0885
3280.3223,94.0769
3281.2864,94.0621
3282.2507,94.0441
3283.2148,94.0243
3284.1792,94.0047
3285.1433,93.9869
3286.1077,93.9713
3287.0718,93.9563
3288.0361,93.9399
3289.0002,93.9203
3289.9646,93.8982
3290.9287,93.8762
3291.8931,93.8581
3292.8572,93.8473
3293.8215,93.8446
3294.7856,93.8475
3295.7500,93.8503
3296.7141,93.8468
3297.6785,93.8328
3298.6426,93.8087
3299.6069,93.7796
3300.5710,93.7528
3301.5354,93.7341
3302.4995,93.7243
3303.4639,93.7186
3304.4280,93.7098
3305.3923,93.6928
3306.3564,93.6679
3307.3208,93.6413
3308.2849,93.6208
3309.2493,93.6114
3310.2134,93.612
3311.1777,93.6166
3312.1418,93.6178
3313.1062,93.6117
3314.0703,93.5987
3315.0347,93.5822
3315.9988,93.5656
3316.9631,93.5501
3317.9272,93.535
3318.8916,93.5198
3319.8557,93.5051
3320.8201,93.4928
3321.7842,93.4838
3322.7485,93.4772
3323.7126,93.4695
3324.6770,93.4573
3325.6411,93.4392
3326.6055,93.417
3327.5696,93.3945
3328.5339,93.375
3329.4980,93.359
3330.4624,93.3446
3331.4265,93.3295
3332.3909,93.3128
3333.3550,93.2965
3334.3193,93.284
3335.2834,93.2782
3336.2478,93.2795
3337.2119,93.2849
3338.1763,93.2902
3339.1404,93.2923
3340.1047,93.2908
3341.0688,93.2874
3342.0332,93.2846
3342.9973,93.2835
3343.9617,93.284
3344.9258,93.2855
3345.8901,93.288
3346.8542,93.2924
3347.8186,93.2992
3348.7827,93.3072
3349.7471,93.3129
3350.7112,93.312
3351.6755,93.3017
3352.6396,93.2826
3353.6040,93.2593
3354.5681,93.2386
3355.5325,93.2269
3356.4966,93.2271
3357.4609,93.2375
3358.4250,93.2527
3359.3894,93.2654
3360.3535,93.2695
3361.3179,93.2632
3362.2820,93.2495
3363.2463,93.2355
3364.2104,93.229
3365.1748,93.2355
3366.1389,93.2555
3367.1033,93.2844
3368.0674,93.3151
3369.0317,93.3411
3369.9958,93.3589
3370.9602,93.3683
3371.9243,93.3709
3372.8887,93.3682
3373.8528,93.3612
3374.8171,93.3506
3375.7813,93.338
3376.7456,93.3263
3377.7097,93.3191
3378.6741,93.3187
3379.6382,93.3258
3380.6025,93.3382
3381.5667,93.3525
3382.5310,93.3651
3383.4951,93.3734
3384.4595,93.3763
3385.4236,93.374
3386.3879,93.3671
3387.3521,93.3571
3388.3164,93.3462
3389.2805,93.3371
3390.2449,93.3329
3391.2090,93.3362
3392.1733,93.3487
3393.1375,93.3706
3394.1018,93.4008
3395.0659,93.4365
3396.0303,93.4731
3396.9944,93.5044
3397.9587,93.5239
3398.9229,93.5279
3399.8872,93.5188
3400.8513,93.5044
3401.8157,93.4951
3402.7798,93.4991
3403.7441,93.5182
3404.7083,93.5483
3405.6726,93.5817
3406.6367,93.6119
3407.6011,93.6356
3408.5652,93.6534
3409.5295,93.6675
3410.4937,93.6797
3411.4580,93.6906
3412.4221,93.6995
3413.3865,93.705
3414.3506,93.706
3415.3149,93.7019
3416.2791,93.6933
3417.2434,93.6828
3418.2075,93.6763
3419.1719,93.6824
3420.1360,93.7083
3421.1003,93.7557
3422.0645,93.8173
3423.0288,93.8799
3423.9929,93.9295
3424.9573,93.9582
3425.9214,93.967
3426.8857,93.9652
3427.8499,93.966
3428.8142,93.98
3429.7783,94.0104
3430.7427,94.0522
3431.7068,94.0968
3432.6711,94.137
3433.6353,94.1709
3434.5996,94.2002
3435.5637,94.2272
3436.5281,94.2515
3437.4922,94.2697
3438.4565,94.2773
3439.4207,94.2722
3440.3850,94.2558
3441.3491,94.2327
3442.3135,94.2096
3443.2776,94.1939
3444.2419,94.1942
3445.2061,94.2181
3446.1704,94.2704
3447.1345,94.3478
3448.0989,94.4378
3449.0630,94.5241
3450.0273,94.593
3450.9915,94.6386
3451.9558,94.6619
3452.9199,94.668
3453.8843,94.6637
3454.8484,94.6557
3455.8127,94.6488
3456.7769,94.6456
3457.7412,94.6466
3458.7053,94.6514
3459.6697,94.6603
3460.6338,94.6746
3461.5981,94.6961
3462.5623,94.7258
3463.5266,94.7623
3464.4907,94.8024
3465.4551,94.8424
3466.4192,94.8792
3467.3835,94.9115
3468.3477,94.9387
3469.3120,94.961
3470.2761,94.9795
3471.2405,94.9973
3472.2046,95.0189
3473.1689,95.0484
3474.1331,95.0857
3475.0974,95.1246
3476.0615,95.1547
3477.0259,95.1677
3477.9900,95.163
3478.9543,95.1491
3479.9185,95.1403
3480.8828,95.1489
3481.8469,95.1772
3482.8113,95.2171
3483.7754,95.2563
3484.7397,95.2875
3485.7039,95.3121
3486.6682,95.3376
3487.6323,95.3715
3488.5967,95.4157
3489.5608,95.4645
3490.5251,95.5088
3491.4893,95.5413
3492.4536,95.5606
3493.4177,95.5717
3494.3821,95.5826
3495.3462,95.5981
3496.3105,95.6148
3497.2747,95.6224
3498.2390,95.61
3499.2031,95.5753
3500.1675,95.5294
3501.1316,95.4965
3502.0959,95.503
3503.0601,95.5595
3504.0244,95.6497
3504.9885,95.743
3505.9529,95.8151
3506.9170,95.8597
3507.8813,95.8858
3508.8455,95.9094
3509.8098,95.9439
3510.7739,95.992
3511.7383,96.0471
3512.7024,96.1013
3513.6667,96.151
3514.6309,96.1963
3515.5952,96.2371
3516.5593,96.2702
3517.5237,96.2908
3518.4878,96.2942
3519.4521,96.2793
3520.4163,96.2483
3521.3806,96.2073
3522.3447,96.1644
3523.3091,96.1286
3524.2732,96.1084
3525.2375,96.1119
3526.2017,96.1465
3527.1660,96.2154
3528.1301,96.3129
3529.0945,96.4213
3530.0586,96.5172
3531.0229,96.583
3531.9871,96.6156
3532.9514,96.6254
3533.9155,96.6311
3534.8799,96.6519
3535.8440,96.6982
3536.8083,96.7647
3537.7725,96.8314
3538.7368,96.8746
3539.7009,96.8799
3540.6653,96.8471
3541.6294,96.7884
3542.5938,96.726
3543.5579,96.6901
3544.5222,96.7076
3545.4863,96.7826
3546.4507,96.8868
3547.4148,96.9798
3548.3792,97.0397
3549.3433,97.072
3550.3076,97.0982
3551.2717,97.1399
3552.2361,97.2072
3553.2002,97.2921
3554.1646,97.3749
3555.1287,97.4392
3556.0930,97.4796
3557.0571,97.4986
3558.0215,97.4979
3558.9856,97.4763
3559.9500,97.4321
3560.9141,97.3667
3561.8784,97.2861
3562.8425,97.1982
3563.8069,97.1131
3564.7710,97.0588
3565.7354,97.0956
3566.6995,97.2708
3567.6638,97.5318
3568.6279,97.7544
3569.5923,97.8696
3570.5564,97.8988
3571.5208,97.8947
3572.4849,97.8915
3573.4492,97.8967
3574.4133,97.9051
3575.3777,97.9133
3576.3418,97.9237
3577.3062,97.9405
3578.2703,97.9623
3579.2346,97.9808
3580.1987,97.9864
3581.1631,97.9769
3582.1272,97.9605
3583.0916,97.9475
3584.0557,97.9411
3585.0200,97.9428
3585.9841,97.9697
3586.9485,98.0451
3587.9126,98.1462
3588.8770,98.2054
3589.8411,98.1859
3590.8054,98.1106
3591.7695,98.0219
3592.7339,97.9473
3593.6980,97.8968
3594.6624,97.869
3595.6265,97.8552
3596.5908,97.8466
3597.5549,97.8459
3598.5193,97.8676
3599.4834,97.9242
3600.4478,98.0108
3601.4119,98.1046
3602.3762,98.1839
3603.3403,98.2444
3604.3047,98.2969
3605.2688,98.3543
3606.2332,98.4253
3607.1973,98.5118
3608.1616,98.6003
3609.1257,98.6598
3610.0901,98.661
3611.0542,98.6006
3612.0186,98.504
3612.9829,98.4096
3613.9470,98.3486
3614.9114,98.3342
3615.8755,98.363
3616.8398,98.4254
3617.8040,98.5144
3618.7683,98.6186
3619.7324,98.7002
3620.6968,98.705
3621.6609,98.6196
3622.6252,98.4989
3623.5894,98.4242
3624.5537,98.4474
3625.5178,98.5631
3626.4822,98.7224
3627.4463,98.8859
3628.4106,99.0422
3629.3748,99.1426
3630.3391,99.115
3631.3032,98.9775
3632.2676,98.8255
3633.2317,98.7375
3634.1960,98.7307
3635.1602,98.7738
3636.1245,98.8224
3637.0886,98.8479
3638.0530,98.8462
3639.0171,98.8256
3639.9814,98.7935
3640.9456,98.7525
3641.9099,98.7085
3642.8740,98.6759
3643.8384,98.6684
3644.8025,98.6756
3645.7668,98.6494
3646.7310,98.5449
3647.6953,98.4433
3648.6594,98.5565
3649.6238,98.875
3650.5879,99.1109
3651.5522,99.134
3652.5164,99.0413
3653.4807,98.9548
3654.4448,98.923
3655.4092,98.9293
3656.3733,98.9325
3657.3376,98.9013
3658.3018,98.8366
3659.2661,98.7692
3660.2302,98.7313
3661.1946,98.7299
3662.1587,98.7463
3663.1230,98.7602
3664.0872,98.7722
3665.0515,98.7975
3666.0156,98.8398
3666.9800,98.873
3667.9441,98.8633
3668.9084,98.8171
3669.8726,98.7786
3670.8369,98.7737
3671.8010,98.7956
3672.7654,98.826
3673.7295,98.8448
3674.6938,98.8539
3675.6580,98.8798
3676.6223,98.9118
3677.5864,98.9043
3678.5508,98.855
3679.5149,98.802
3680.4792,98.769
3681.4434,98.7504
3682.4077,98.7351
3683.3718,98.7308
3684.3362,98.7572
3685.3003,98.8172
3686.2646,98.8751
3687.2288,98.8779
3688.1931,98.8238
3689.1572,98.7835
3690.1216,98.7978
3691.0857,98.8264
3692.0500,98.8336
3693.0142,98.8285
3693.9785,98.8334
3694.9426,98.8585
3695.9070,98.9043
3696.8711,98.9686
3697.8354,99.0494
3698.7996,99.1416
3699.7639,99.2358
3700.7280,99.3208
3701.6924,99.3825
3702.6565,99.4044
3703.6208,99.3807
3704.5850,99.3294
3705.5493,99.2814
3706.5134,99.256
3707.4778,99.2481
3708.4419,99.2468
3709.4063,99.2807
3710.3704,99.4226
3711.3347,99.6791
3712.2988,99.9207
3713.2632,100.021
3714.2273,99.9787
3715.1917,99.8673
3716.1558,99.7536
3717.1201,99.6625
3718.0842,99.5848
3719.0486,99.5018
3720.0127,99.4067
3720.9771,99.3113
3721.9412,99.238
3722.9055,99.2067
3723.8696,99.2238
3724.8340,99.276
3725.7981,99.3358
3726.7625,99.3818
3727.7266,99.4151
3728.6909,99.4525
3729.6550,99.5068
3730.6194,99.5514
3731.5835,99.5466
3732.5479,99.4718
3733.5120,99.3791
3734.4763,99.3768
3735.4404,99.4879
3736.4048,99.5917
3737.3689,99.5931
3738.3333,99.5407
3739.2974,99.5585
3740.2617,99.737
3741.2258,100.073
3742.1902,100.456
3743.1543,100.716
3744.1187,100.726
3745.0828,100.492
3746.0471,100.141
3747.0112,99.8159
3747.9756,99.6099
3748.9397,99.5543
3749.9041,99.6539
3750.8682,99.8589
3751.8325,100.013
3752.7966,99.9875
3753.7610,99.818
3754.7251,99.6238
3755.6895,99.4917
3756.6536,99.4486
3757.6179,99.4839
3758.5820,99.5679
3759.5464,99.6563
3760.5105,99.7084
3761.4749,99.714
3762.4390,99.6918
3763.4033,99.6661
3764.3674,99.6522
3765.3318,99.6555
3766.2959,99.676
3767.2603,99.7128
3768.2244,99.7652
3769.1887,99.8291
3770.1528,99.8896
3771.1172,99.9228
3772.0813,99.9136
3773.0457,99.8716
3774.0098,99.8235
3774.9741,99.7923
3775.9382,99.7836
3776.9026,99.7899
3777.8667,99.8029
3778.8311,99.8137
3779.7952,99.8062
3780.7595,99.766
3781.7236,99.6964
3782.6880,99.6195
3783.6521,99.5645
3784.6165,99.5533
3785.5806,99.591
3786.5449,99.6626
3787.5090,99.7425
3788.4734,99.8094
3789.4375,99.856
3790.4019,99.8857
3791.3660,99.9015
3792.3303,99.8964
3793.2944,99.8556
3794.2588,99.7716
3795.2229,99.659
3796.1873,99.5537
3797.1514,99.4899
3798.1157,99.4766
3799.0798,99.4943
3800.0442,99.516
3801.0083,99.5289
3801.9727,99.5337
3802.9368,99.5413
3803.9011,99.5775
3804.8652,99.6661
3805.8296,99.7983
3806.7937,99.9221
3807.7581,99.9688
3808.7222,99.9108
3809.6865,99.7955
3810.6506,99.7108
3811.6150,99.7165
3812.5791,99.8019
3813.5435,99.8948
3814.5076,99.9131
3815.4719,99.8252
3816.4360,99.6661
3817.4004,99.5027
3818.3645,99.3944
3819.3289,99.3749
3820.2930,99.439
3821.2573,99.5279
3822.2214,99.5594
3823.1858,99.5032
3824.1499,99.4042
3825.1143,99.3317
3826.0784,99.3283
3827.0427,99.3921
3828.0068,99.4887
3828.9712,99.5748
3829.9353,99.6215
3830.8997,99.626
3831.8638,99.6068
3832.8281,99.5872
3833.7922,99.5777
3834.7566,99.5653
3835.7207,99.5229
3836.6851,99.437
3837.6492,99.3314
3838.6135,99.2543
3839.5776,99.2382
3840.5420,99.2849
3841.5061,99.3803
3842.4705,99.4986
3843.4346,99.5997
3844.3989,99.6399
3845.3630,99.6018
3846.3274,99.5156
3847.2915,99.4508
3848.2559,99.4818
3849.2200,99.6462
3850.1843,99.9156
3851.1484,100.203
3852.1128,100.433
3853.0769,100.59
3854.0413,100.604
3855.0054,100.395
3855.9697,100.046
3856.9338,99.7219
3857.8982,99.5278
3858.8623,99.4717
3859.8267,99.4931
3860.7908,99.5099
3861.7551,99.4736
3862.7192,99.4039
3863.6836,99.3612
3864.6477,99.3828
3865.6121,99.4578
3866.5762,99.5486
3867.5405,99.6149
3868.5046,99.6302
3869.4690,99.5985
3870.4331,99.5543
3871.3975,99.5344
3872.3616,99.5481
3873.3259,99.5815
3874.2900,99.6212
3875.2544,99.6637
3876.2185,99.7067
3877.1829,99.7386
3878.1470,99.7405
3879.1113,99.7026
3880.0754,99.6414
3881.0398,99.5948
3882.0039,99.5974
3882.9683,99.6591
3883.9324,99.7585
3884.8967,99.8515
3885.8608,99.8934
3886.8252,99.867
3887.7893,99.7924
3888.7537,99.7072
3889.7178,99.6433
3890.6821,99.6179
3891.6462,99.6285
3892.6106,99.649
3893.5747,99.6521
3894.5391,99.6389
3895.5032,99.63
3896.4675,99.6329
3897.4316,99.6326
3898.3960,99.6092
3899.3601,99.5615
3900.3245,99.5076
3901.2886,99.471
3902.2529,99.471
3903.2170,99.516
3904.1814,99.5916
3905.1455,99.6663
3906.1099,99.7175
3907.0740,99.7466
3908.0383,99.7669
3909.0024,99.786
3909.9668,99.8006
3910.9309,99.8029
3911.8953,99.7894
3912.8594,99.7633
3913.8237,99.7327
3914.7878,99.707
3915.7522,99.6955
3916.7163,99.7028
3917.6807,99.7194
3918.6448,99.7217
3919.6091,99.6902
3920.5732,99.6274
3921.5376,99.5554
3922.5017,99.5025
3923.4661,99.4876
3924.4302,99.5081
3925.3945,99.5381
3926.3586,99.5472
3927.3230,99.5215
3928.2871,99.4702
3929.2515,99.4191
3930.2156,99.4017
3931.1799,99.4432
3932.1440,99.5398
3933.1084,99.6562
3934.0725,99.7516
3935.0369,99.8058
3936.0010,99.8214
3936.9653,99.8102
3937.9294,99.7816
3938.8938,99.7401
3939.8579,99.689
3940.8223,99.6374
3941.7864,99.599
3942.7507,99.5835
3943.7148,99.5871
3944.6792,99.5962
3945.6433,99.597
3946.6077,99.5843
3947.5718,99.5656
3948.5361,99.5576
3949.5002,99.5749
3950.4646,99.6187
3951.4287,99.6758
3952.3931,99.7295
3953.3572,99.7679
3954.3215,99.7866
3955.2856,99.7872
3956.2500,99.7746
3957.2141,99.7541
3958.1785,99.7312
3959.1426,99.712
3960.1069,99.7042
3961.0710,99.7142
3962.0354,99.7433
3962.9995,99.7845
3963.9639,99.8258
3964.9280,99.8553
3965.8923,99.8661
3966.8564,99.8573
3967.8208,99.8319
3968.7849,99.7947
3969.7493,99.7513
3970.7134,99.7081
3971.6777,99.6738
3972.6418,99.6575
3973.6062,99.6655
3974.5703,99.697
3975.5347,99.743
3976.4988,99.7902
3977.4631,99.8269
3978.4272,99.8473
3979.3916,99.8524
3980.3557,99.8472
3981.3201,99.8374
3982.2842,99.8265
3983.2485,99.8158
3984.2126,99.8046
3985.1770,99.7928
3986.1411,99.7813
3987.1055,99.7719
3988.0696,99.766
3989.0339,99.7636
3989.9980,99.7635
3990.9624,99.7647
3991.9265,99.767
3992.8909,99.7721
3993.8550,99.7812
3994.8193,99.7941
3995.7834,99.8083
3996.7478,99.8199
3997.7119,99.8263
3998.6763,99.8274
3999.6404,99.825
4000.6047,99.6461

##### Extended Information
[Comments]
Sample name
Comment
User
Division
Company,HANKYONG

[Detailed Information]
Creation date,4/24/2024 1:41 PM

Data array type,Linear data array
Horizontal axis,Wavenumber [cm-1]
Vertical axis,%T
Start,649.893 cm-1
End,4000.6 cm-1
Data interval,0.964233 cm-1
Data points,3476    

[Measurement Information]
Model Name,FT/IR-4700typeA
Serial Number,D056761788

Accessory,ATR PRO ONE
Accessory S/N,C174761809
Incident angle,45 deg

Measurement Date,4/24/2024 1:40 PM

Light Source,Standard
Detector,TGS
Accumulation,32
Resolution,4 cm-1
Zero Filling,On
Apodization,Cosine
Gain,Auto (4)
Aperture,Auto (7.1 mm)
Scanning Speed,Auto (2 mm/sec)
Filter,Auto (30000 Hz)

