TITLE,
DATA TYPE,INFRARED SPECTRUM
ORIGIN,JASCO
OWNER,
DATE,24/04/24
TIME,14:40:25
SPECTROMETER/DATA SYSTEM,
LOCALE,1033
RESOLUTION,
DELTAX,0.964233
XUNITS,1/CM
YUNITS,TRANSMITTANCE
FIRSTX,  649.8934
LASTX, 4000.6047
NPOINTS,    3476
FIRSTY,    98.98714
MAXY,   102.04790
MINY,    89.13447
XYDATA
649.8934,98.9871
650.8576,99.0811
651.8218,99.192
652.7861,99.2825
653.7503,99.3132
654.7145,99.2653
655.6788,99.1511
656.6430,99.0079
657.6072,98.8766
658.5715,98.7803
659.5357,98.7184
660.4999,98.6784
661.4642,98.6551
662.4284,98.661
663.3926,98.7215
664.3569,98.8629
665.3211,99.1032
666.2853,99.431
667.2496,99.758
668.2138,99.9004
669.1780,99.7564
670.1423,99.4769
671.1065,99.2571
672.0707,99.1603
673.0350,99.1651
673.9992,99.229
674.9634,99.3127
675.9277,99.3906
676.8919,99.4563
677.8561,99.5167
678.8204,99.5781
679.7846,99.6364
680.7488,99.6807
681.7131,99.7033
682.6773,99.708
683.6415,99.7089
684.6058,99.7218
685.5700,99.7558
686.5342,99.8078
687.4985,99.8632
688.4627,99.9019
689.4269,99.907
690.3912,99.8736
691.3554,99.8116
692.3196,99.7415
693.2839,99.6838
694.2481,99.6464
695.2123,99.6215
696.1766,99.5945
697.1408,99.5573
698.1050,99.515
699.0693,99.4826
700.0335,99.4742
700.9977,99.4928
701.9620,99.5289
702.9262,99.5654
703.8904,99.5874
704.8547,99.5882
705.8189,99.5704
706.7831,99.5419
707.7474,99.512
708.7116,99.4888
709.6758,99.4786
710.6401,99.4845
711.6043,99.5058
712.5685,99.5375
713.5328,99.5727
714.4970,99.6059
715.4612,99.6431
716.4255,99.6714
717.3897,99.7014
718.3539,99.733
719.3182,99.7628
720.2824,99.7867
721.2466,99.8038
722.2109,99.8173
723.1751,99.8316
724.1393,99.8475
725.1036,99.861
726.0678,99.8647
727.0320,99.8534
727.9963,99.8279
728.9605,99.7975
729.9247,99.7759
730.8890,99.7758
731.8532,99.802
732.8174,99.8487
733.7817,99.9012
734.7459,99.9423
735.7101,99.9598
736.6744,99.9525
737.6386,99.9295
738.6028,99.9053
739.5671,99.8914
740.5313,99.8907
741.4955,99.8969
742.4598,99.8993
743.4240,99.8893
744.3882,99.864
745.3525,99.8267
746.3167,99.7847
747.2809,99.747
748.2452,99.7219
749.2094,99.7164
750.1736,99.7335
751.1379,99.7704
752.1021,99.8181
753.0663,99.8681
754.0306,99.9138
754.9948,99.941
755.9590,99.9507
756.9233,99.947
757.8875,99.9325
758.8517,99.9072
759.8160,99.8709
760.7802,99.8271
761.7444,99.7845
762.7087,99.7537
763.6729,99.742
764.6371,99.7496
765.6014,99.7701
766.5656,99.7956
767.5298,99.8202
768.4941,99.8422
769.4583,99.8612
770.4225,99.8761
771.3868,99.8848
772.3510,99.886
773.3152,99.8823
774.2795,99.879
775.2437,99.8819
776.2079,99.8937
777.1722,99.9129
778.1364,99.9351
779.1006,99.9557
780.0649,99.9724
781.0291,99.9848
781.9933,99.994
782.9576,100.002
783.9218,100.012
784.8860,100.027
785.8503,100.049
786.8145,100.076
787.7787,100.106
788.7430,100.131
789.7072,100.146
790.6714,100.148
791.6357,100.14
792.5999,100.124
793.5641,100.107
794.5284,100.092
795.4926,100.084
796.4568,100.084
797.4211,100.093
798.3853,100.108
799.3495,100.121
800.3138,100.126
801.2780,100.118
802.2422,100.096
803.2065,100.062
804.1707,100.023
805.1349,99.9866
806.0992,99.9592
807.0634,99.9453
808.0276,99.9462
808.9919,99.9603
809.9561,99.9835
810.9203,100.01
811.8846,100.032
812.8488,100.047
813.8130,100.053
814.7773,100.051
815.7415,100.044
816.7057,100.036
817.6700,100.028
818.6342,100.022
819.5984,100.018
820.5627,100.02
821.5269,100.03
822.4911,100.051
823.4554,100.082
824.4196,100.114
825.3839,100.139
826.3481,100.146
827.3123,100.135
828.2766,100.112
829.2408,100.088
830.2050,100.075
831.1693,100.075
832.1335,100.082
833.0977,100.086
834.0620,100.079
835.0262,100.062
835.9904,100.04
836.9547,100.02
837.9189,100.007
838.8831,100.001
839.8474,99.9985
840.8116,99.9966
841.7758,99.9942
842.7401,99.9916
843.7043,99.989
844.6685,99.9862
845.6328,99.9829
846.5970,99.979
847.5612,99.9741
848.5255,99.9666
849.4897,99.9533
850.4539,99.9316
851.4182,99.9016
852.3824,99.8674
853.3466,99.8354
854.3109,99.8115
855.2751,99.7984
856.2393,99.795
857.2036,99.7984
858.1678,99.805
859.1320,99.8116
860.0963,99.8145
861.0605,99.8092
862.0247,99.7917
862.9890,99.7596
863.9532,99.7141
864.9174,99.6594
865.8817,99.6018
866.8459,99.5475
867.8101,99.5009
868.7744,99.4636
869.7386,99.4328
870.7028,99.4024
871.6671,99.3653
872.6313,99.3172
873.5955,99.2602
874.5598,99.2028
875.5240,99.1558
876.4882,99.1267
877.4525,99.1149
878.4167,99.1123
879.3809,99.1078
880.3452,99.0924
881.3094,99.062
882.2736,99.0169
883.2379,98.959
884.2021,98.8915
885.1663,98.8193
886.1306,98.7498
887.0948,98.6914
888.0590,98.6486
889.0233,98.618
889.9875,98.588
890.9517,98.545
891.9160,98.4814
892.8802,98.4012
893.8444,98.3187
894.8087,98.2515
895.7729,98.2119
896.7371,98.2021
897.7014,98.2154
898.6656,98.2419
899.6298,98.2729
900.5941,98.3034
901.5583,98.3308
902.5225,98.3528
903.4868,98.3672
904.4510,98.3734
905.4152,98.3733
906.3795,98.3709
907.3437,98.3695
908.3079,98.3693
909.2722,98.3667
910.2364,98.3562
911.2006,98.3338
912.1649,98.2996
913.1291,98.2571
914.0933,98.2108
915.0576,98.164
916.0218,98.1175
916.9860,98.0704
917.9503,98.0227
918.9145,97.9749
919.8787,97.9287
920.8430,97.8848
921.8072,97.8423
922.7714,97.7997
923.7357,97.7558
924.6999,97.7103
925.6641,97.6638
926.6284,97.6168
927.5926,97.5692
928.5568,97.5213
929.5211,97.4742
930.4853,97.4303
931.4495,97.3909
932.4138,97.3546
933.3780,97.3165
934.3422,97.2705
935.3065,97.2128
936.2707,97.1443
937.2349,97.07
938.1992,96.996
939.1634,96.9254
940.1276,96.8576
941.0919,96.7904
942.0561,96.7226
943.0203,96.6555
943.9846,96.591
944.9488,96.5285
945.9130,96.4639
946.8773,96.3906
947.8415,96.3048
948.8057,96.2078
949.7700,96.1061
950.7342,96.007
951.6984,95.9144
952.6627,95.8267
953.6269,95.7383
954.5911,95.6442
955.5554,95.5433
956.5196,95.4388
957.4838,95.3356
958.4481,95.2368
959.4123,95.1415
960.3765,95.0456
961.3408,94.9439
962.3050,94.8341
963.2692,94.7175
964.2335,94.5987
965.1977,94.4831
966.1619,94.3738
967.1262,94.2698
968.0904,94.166
969.0546,94.0552
970.0189,93.9314
970.9831,93.7922
971.9473,93.6396
972.9116,93.4784
973.8758,93.3136
974.8400,93.1479
975.8043,92.9813
976.7685,92.8117
977.7327,92.6371
978.6970,92.457
979.6612,92.2726
980.6254,92.0865
981.5897,91.9025
982.5539,91.7251
983.5181,91.5592
984.4824,91.4099
985.4466,91.2809
986.4108,91.1733
987.3751,91.0851
988.3393,91.0119
989.3035,90.9489
990.2678,90.892
991.2320,90.8386
992.1962,90.787
993.1605,90.7363
994.1247,90.6862
995.0889,90.6373
996.0532,90.591
997.0174,90.5493
997.9816,90.513
998.9459,90.4811
999.9101,90.4501
1000.8743,90.4156
1001.8386,90.374
1002.8028,90.3242
1003.7670,90.2682
1004.7313,90.2102
1005.6955,90.1542
1006.6597,90.102
1007.6240,90.0521
1008.5882,89.9998
1009.5524,89.9398
1010.5167,89.8688
1011.4809,89.7873
1012.4451,89.7003
1013.4094,89.6148
1014.3736,89.5363
1015.3378,89.4673
1016.3021,89.406
1017.2663,89.3483
1018.2305,89.2911
1019.1948,89.2345
1020.1590,89.1834
1021.1232,89.1468
1022.0875,89.1345
1023.0517,89.1525
1024.0160,89.1995
1024.9802,89.264
1025.9445,89.3277
1026.9087,89.3715
1027.8729,89.3857
1028.8372,89.3764
1029.8014,89.3645
1030.7656,89.3777
1031.7299,89.4387
1032.6941,89.5558
1033.6583,89.7204
1034.6226,89.9113
1035.5868,90.1045
1036.5510,90.2823
1037.5153,90.4383
1038.4795,90.5772
1039.4437,90.7084
1040.4080,90.8393
1041.3722,90.9714
1042.3364,91.1007
1043.3007,91.2206
1044.2649,91.3267
1045.2291,91.4198
1046.1934,91.5052
1047.1576,91.5898
1048.1218,91.6786
1049.0861,91.7734
1050.0503,91.874
1051.0145,91.981
1051.9788,92.0976
1052.9430,92.2287
1053.9072,92.3766
1054.8715,92.5374
1055.8357,92.7004
1056.7999,92.852
1057.7642,92.984
1058.7284,93.1013
1059.6926,93.2228
1060.6569,93.3743
1061.6211,93.5761
1062.5853,93.8311
1063.5496,94.1206
1064.5138,94.4089
1065.4780,94.6586
1066.4423,94.8481
1067.4065,94.9811
1068.3707,95.0828
1069.3350,95.1844
1070.2992,95.3077
1071.2634,95.4581
1072.2277,95.627
1073.1919,95.8001
1074.1561,95.966
1075.1204,96.119
1076.0846,96.2577
1077.0488,96.3812
1078.0131,96.4869
1078.9773,96.5713
1079.9415,96.6338
1080.9058,96.6784
1081.8700,96.7131
1082.8342,96.7461
1083.7985,96.7817
1084.7627,96.8176
1085.7269,96.8464
1086.6912,96.8591
1087.6554,96.8503
1088.6196,96.8221
1089.5839,96.7835
1090.5481,96.7469
1091.5123,96.7227
1092.4766,96.7158
1093.4408,96.7246
1094.4050,96.7445
1095.3693,96.7708
1096.3335,96.8009
1097.2977,96.8341
1098.2620,96.8692
1099.2262,96.9031
1100.1904,96.9311
1101.1547,96.949
1102.1189,96.9561
1103.0831,96.9558
1104.0474,96.9539
1105.0116,96.9559
1105.9758,96.9648
1106.9401,96.9806
1107.9043,97.0019
1108.8685,97.0272
1109.8328,97.0561
1110.7970,97.0885
1111.7612,97.125
1112.7255,97.1661
1113.6897,97.2121
1114.6539,97.2635
1115.6182,97.319
1116.5824,97.3756
1117.5466,97.4281
1118.5109,97.4716
1119.4751,97.5046
1120.4393,97.5308
1121.4036,97.5587
1122.3678,97.598
1123.3320,97.6547
1124.2963,97.7288
1125.2605,97.814
1126.2247,97.9015
1127.1890,97.9837
1128.1532,98.0574
1129.1174,98.1246
1130.0817,98.1906
1131.0459,98.2611
1132.0101,98.3387
1132.9744,98.4218
1133.9386,98.5044
1134.9028,98.5787
1135.8671,98.6377
1136.8313,98.678
1137.7955,98.7002
1138.7598,98.7076
1139.7240,98.7035
1140.6882,98.6898
1141.6525,98.6673
1142.6167,98.6368
1143.5809,98.6004
1144.5452,98.5616
1145.5094,98.5232
1146.4736,98.4864
1147.4379,98.4494
1148.4021,98.4095
1149.3663,98.3644
1150.3306,98.3143
1151.2948,98.2621
1152.2590,98.2123
1153.2233,98.1699
1154.1875,98.1386
1155.1517,98.1206
1156.1160,98.1162
1157.0802,98.1244
1158.0444,98.1436
1159.0087,98.1725
1159.9729,98.2112
1160.9371,98.2614
1161.9014,98.3262
1162.8656,98.4085
1163.8298,98.5104
1164.7941,98.6311
1165.7583,98.7679
1166.7225,98.9158
1167.6868,99.0689
1168.6510,99.221
1169.6152,99.3668
1170.5795,99.502
1171.5437,99.624
1172.5079,99.7316
1173.4722,99.8251
1174.4364,99.9055
1175.4006,99.9741
1176.3649,100.032
1177.3291,100.08
1178.2933,100.118
1179.2576,100.147
1180.2218,100.166
1181.1860,100.173
1182.1503,100.169
1183.1145,100.155
1184.0787,100.134
1185.0430,100.11
1186.0072,100.088
1186.9714,100.066
1187.9357,100.042
1188.8999,100.009
1189.8641,99.973
1190.8284,99.9236
1191.7926,99.8632
1192.7568,99.7959
1193.7211,99.7254
1194.6853,99.6539
1195.6495,99.5822
1196.6138,99.511
1197.5780,99.441
1198.5422,99.3725
1199.5065,99.2813
1200.4707,99.2126
1201.4349,99.1375
1202.3992,99.0545
1203.3634,98.9658
1204.3276,98.8764
1205.2919,98.7922
1206.2561,98.7167
1207.2203,98.6505
1208.1846,98.5911
1209.1488,98.5349
1210.1130,98.4781
1211.0773,98.4183
1212.0415,98.354
1213.0057,98.2854
1213.9700,98.2141
1214.9342,98.1425
1215.8984,98.0732
1216.8627,98.0081
1217.8269,97.9478
1218.7911,97.8921
1219.7554,97.8406
1220.7196,97.7931
1221.6838,97.7494
1222.6481,97.7088
1223.6123,97.6701
1224.5765,97.6317
1225.5408,97.5921
1226.5050,97.5511
1227.4692,97.5092
1228.4335,97.4684
1229.3977,97.4306
1230.3619,97.3971
1231.3262,97.3677
1232.2904,97.3403
1233.2546,97.3119
1234.2189,97.2808
1235.1831,97.2484
1236.1473,97.22
1237.1116,97.202
1238.0758,97.1986
1239.0400,97.2085
1240.0043,97.2245
1240.9685,97.2376
1241.9327,97.2415
1242.8970,97.2371
1243.8612,97.2316
1244.8254,97.2348
1245.7897,97.253
1246.7539,97.2861
1247.7181,97.3276
1248.6824,97.3687
1249.6466,97.4022
1250.6108,97.4251
1251.5751,97.4388
1252.5393,97.4465
1253.5035,97.4517
1254.4678,97.4563
1255.4320,97.4615
1256.3962,97.4679
1257.3605,97.4762
1258.3247,97.4871
1259.2889,97.5006
1260.2532,97.5158
1261.2174,97.5316
1262.1816,97.5469
1263.1459,97.5615
1264.1101,97.5762
1265.0743,97.5922
1266.0386,97.6103
1267.0028,97.6316
1267.9670,97.6568
1268.9313,97.6874
1269.8955,97.7249
1270.8597,97.7706
1271.8240,97.8243
1272.7882,97.8844
1273.7524,97.948
1274.7167,98.0126
1275.6809,98.0762
1276.6451,98.1378
1277.6094,98.1968
1278.5736,98.2525
1279.5378,98.3041
1280.5021,98.3505
1281.4663,98.3919
1282.4305,98.4293
1283.3948,98.4642
1284.3590,98.4982
1285.3232,98.532
1286.2875,98.565
1287.2517,98.5957
1288.2159,98.6229
1289.1802,98.6458
1290.1444,98.665
1291.1086,98.6811
1292.0729,98.6943
1293.0371,98.7033
1294.0013,98.706
1294.9656,98.7004
1295.9298,98.6856
1296.8940,98.6624
1297.8583,98.6326
1298.8225,98.5976
1299.7867,98.5586
1300.7510,98.5159
1301.7152,98.4707
1302.6794,98.4249
1303.6437,98.3805
1304.6079,98.3387
1305.5721,98.2991
1306.5364,98.2597
1307.5006,98.2175
1308.4648,98.1702
1309.4291,98.1174
1310.3933,98.0608
1311.3575,98.0037
1312.3218,97.9503
1313.2860,97.9042
1314.2502,97.8673
1315.2145,97.8403
1316.1787,97.8222
1317.1429,97.8119
1318.1072,97.8082
1319.0714,97.81
1320.0356,97.8167
1320.9999,97.8279
1321.9641,97.8427
1322.9283,97.8596
1323.8926,97.8768
1324.8568,97.8922
1325.8210,97.9041
1326.7853,97.9121
1327.7495,97.9179
1328.7137,97.9248
1329.6780,97.9367
1330.6422,97.9568
1331.6064,97.9857
1332.5707,98.0215
1333.5349,98.0609
1334.4991,98.101
1335.4634,98.1412
1336.4276,98.1831
1337.3918,98.2282
1338.3561,98.2758
1339.3203,98.3229
1340.2845,98.3673
1341.2488,98.4099
1342.2130,98.4527
1343.1772,98.4958
1344.1415,98.5374
1345.1057,98.5748
1346.0699,98.6045
1347.0342,98.624
1347.9984,98.6318
1348.9626,98.6287
1349.9269,98.6169
1350.8911,98.5994
1351.8553,98.5792
1352.8196,98.5583
1353.7838,98.5376
1354.7480,98.5166
1355.7123,98.4944
1356.6765,98.4698
1357.6407,98.4428
1358.6050,98.4151
1359.5692,98.3901
1360.5334,98.3707
1361.4977,98.3575
1362.4619,98.3478
1363.4261,98.3405
1364.3904,98.3372
1365.3546,98.3397
1366.3188,98.3478
1367.2831,98.3599
1368.2473,98.3743
1369.2115,98.3906
1370.1758,98.411
1371.1400,98.441
1372.1042,98.4873
1373.0685,98.5536
1374.0327,98.6358
1374.9969,98.723
1375.9612,98.8063
1376.9254,98.884
1377.8896,98.9604
1378.8539,99.0392
1379.8181,99.1198
1380.7823,99.1969
1381.7466,99.2632
1382.7108,99.3148
1383.6750,99.3534
1384.6393,99.3861
1385.6035,99.4209
1386.5677,99.4628
1387.5320,99.5133
1388.4962,99.5737
1389.4604,99.6447
1390.4247,99.7237
1391.3889,99.8047
1392.3531,99.8786
1393.3174,99.9328
1394.2816,99.953
1395.2458,99.9268
1396.2101,99.873
1397.1743,99.8198
1398.1385,99.7888
1399.1028,99.7851
1400.0670,99.8012
1401.0313,99.8262
1401.9955,99.8518
1402.9597,99.8728
1403.9240,99.8849
1404.8882,99.8826
1405.8524,99.862
1406.8167,99.8242
1407.7809,99.7738
1408.7451,99.7144
1409.7094,99.6465
1410.6736,99.569
1411.6378,99.4821
1412.6021,99.3884
1413.5663,99.2915
1414.5305,99.1937
1415.4948,99.0967
1416.4590,99.0027
1417.4232,98.9122
1418.3875,98.8234
1419.3517,98.7412
1420.3159,98.679
1421.2802,98.6446
1422.2444,98.6341
1423.2086,98.6386
1424.1729,98.6504
1425.1371,98.6653
1426.1013,98.6824
1427.0656,98.7037
1428.0298,98.7321
1428.9940,98.7677
1429.9583,98.8053
1430.9225,98.8365
1431.8867,98.8562
1432.8510,98.8661
1433.8152,98.8756
1434.7794,98.8974
1435.7437,98.936
1436.7079,98.9809
1437.6721,99.0188
1438.6364,99.0484
1439.6006,99.0729
1440.5648,99.0908
1441.5291,99.0982
1442.4933,99.093
1443.4575,99.0755
1444.4218,99.0478
1445.3860,99.0129
1446.3502,98.9742
1447.3145,98.9354
1448.2787,98.9004
1449.2429,98.8721
1450.2072,98.8505
1451.1714,98.8306
1452.1356,98.8062
1453.0999,98.7777
1454.0641,98.7602
1455.0283,98.7822
1455.9926,98.8549
1456.9568,98.9249
1457.9210,98.9304
1458.8853,98.904
1459.8495,98.8948
1460.8137,98.9062
1461.7780,98.929
1462.7422,98.9653
1463.7064,99.0231
1464.6707,99.0991
1465.6349,99.1756
1466.5991,99.2364
1467.5634,99.2772
1468.5276,99.3025
1469.4918,99.325
1470.4561,99.367
1471.4203,99.4494
1472.3845,99.5653
1473.3488,99.6724
1474.3130,99.7422
1475.2772,99.7879
1476.2415,99.8303
1477.2057,99.8744
1478.1699,99.9163
1479.1342,99.9513
1480.0984,99.9762
1481.0626,99.9887
1482.0269,99.9869
1482.9911,99.9701
1483.9553,99.9397
1484.9196,99.9001
1485.8838,99.8596
1486.8480,99.828
1487.8123,99.8072
1488.7765,99.7816
1489.7407,99.7348
1490.7050,99.6743
1491.6692,99.6165
1492.6334,99.563
1493.5977,99.5068
1494.5619,99.4435
1495.5261,99.3729
1496.4904,99.2914
1497.4546,99.1926
1498.4188,99.0824
1499.3831,98.9791
1500.3473,98.8907
1501.3115,98.8084
1502.2758,98.7229
1503.2400,98.6402
1504.2042,98.5915
1505.1685,98.6282
1506.1327,98.7647
1507.0969,98.8871
1508.0612,98.8838
1509.0254,98.8323
1509.9896,98.8164
1510.9539,98.8384
1511.9181,98.8802
1512.8823,98.9346
1513.8466,99.0043
1514.8108,99.0912
1515.7750,99.1879
1516.7393,99.2797
1517.7035,99.3574
1518.6677,99.4264
1519.6320,99.5019
1520.5962,99.5933
1521.5604,99.693
1522.5247,99.7842
1523.4889,99.8556
1524.4531,99.9054
1525.4174,99.9366
1526.3816,99.9528
1527.3458,99.9573
1528.3101,99.9525
1529.2743,99.9405
1530.2385,99.9248
1531.2028,99.9109
1532.1670,99.901
1533.1312,99.8888
1534.0955,99.8658
1535.0597,99.8315
1536.0239,99.7937
1536.9882,99.7703
1537.9524,99.7981
1538.9166,99.9241
1539.8809,100.135
1540.8451,100.277
1541.8093,100.234
1542.7736,100.112
1543.7378,100.018
1544.7020,99.9682
1545.6663,99.9429
1546.6305,99.9254
1547.5947,99.9069
1548.5590,99.8849
1549.5232,99.8606
1550.4874,99.8365
1551.4517,99.8131
1552.4159,99.7893
1553.3801,99.7635
1554.3444,99.7406
1555.3086,99.7401
1556.2728,99.8007
1557.2371,99.9466
1558.2013,100.084
1559.1655,100.052
1560.1298,99.9174
1561.0940,99.8254
1562.0582,99.7963
1563.0225,99.7941
1563.9867,99.7909
1564.9509,99.7768
1565.9152,99.7535
1566.8794,99.7263
1567.8436,99.6964
1568.8079,99.6587
1569.7721,99.6112
1570.7363,99.5602
1571.7006,99.512
1572.6648,99.4679
1573.6290,99.4298
1574.5933,99.4015
1575.5575,99.3786
1576.5217,99.3456
1577.4860,99.2978
1578.4502,99.2474
1579.4144,99.2
1580.3787,99.1496
1581.3429,99.0907
1582.3071,99.0231
1583.2714,98.951
1584.2356,98.8782
1585.1998,98.8072
1586.1641,98.7386
1587.1283,98.6735
1588.0925,98.6142
1589.0568,98.5632
1590.0210,98.5226
1590.9852,98.4926
1591.9495,98.4727
1592.9137,98.4621
1593.8779,98.4597
1594.8422,98.4632
1595.8064,98.47
1596.7706,98.4774
1597.7349,98.4846
1598.6991,98.4922
1599.6633,98.5017
1600.6276,98.5142
1601.5918,98.5294
1602.5560,98.5457
1603.5203,98.561
1604.4845,98.5739
1605.4487,98.5845
1606.4130,98.5942
1607.3772,98.6036
1608.3414,98.6115
1609.3057,98.6144
1610.2699,98.609
1611.2341,98.5943
1612.1984,98.5721
1613.1626,98.5498
1614.1268,98.5402
1615.0911,98.5536
1616.0553,98.5819
1617.0195,98.6023
1617.9838,98.606
1618.9480,98.6026
1619.9122,98.6024
1620.8765,98.6114
1621.8407,98.6328
1622.8049,98.6636
1623.7692,98.6921
1624.7334,98.7084
1625.6976,98.7136
1626.6619,98.7151
1627.6261,98.7176
1628.5903,98.7193
1629.5546,98.7137
1630.5188,98.6953
1631.4830,98.6644
1632.4473,98.6329
1633.4115,98.6245
1634.3757,98.6607
1635.3400,98.7247
1636.3042,98.7615
1637.2684,98.7527
1638.2327,98.7292
1639.1969,98.7115
1640.1611,98.6968
1641.1254,98.676
1642.0896,98.645
1643.0538,98.6102
1644.0181,98.5898
1644.9823,98.6035
1645.9465,98.6461
1646.9108,98.6788
1647.8750,98.6726
1648.8392,98.6359
1649.8035,98.594
1650.7677,98.5832
1651.7319,98.6491
1652.6962,98.7873
1653.6604,98.8898
1654.6246,98.9019
1655.5889,98.89
1656.5531,98.8908
1657.5173,98.8965
1658.4816,98.8988
1659.4458,98.9028
1660.4100,98.9207
1661.3743,98.9562
1662.3385,98.9972
1663.3027,99.0266
1664.2670,99.0389
1665.2312,99.0397
1666.1954,99.041
1667.1597,99.0595
1668.1239,99.1088
1669.0881,99.1823
1670.0524,99.25
1671.0166,99.2874
1671.9808,99.2976
1672.9451,99.298
1673.9093,99.3031
1674.8735,99.3179
1675.8378,99.3378
1676.8020,99.3542
1677.7662,99.3607
1678.7305,99.3539
1679.6947,99.3359
1680.6589,99.3196
1681.6232,99.3291
1682.5874,99.3796
1683.5516,99.443
1684.5159,99.4669
1685.4801,99.4532
1686.4443,99.4398
1687.4086,99.4408
1688.3728,99.4479
1689.3370,99.449
1690.3013,99.4365
1691.2655,99.4096
1692.2297,99.3735
1693.1940,99.3384
1694.1582,99.317
1695.1224,99.3191
1696.0867,99.3449
1697.0509,99.3821
1698.0151,99.4117
1698.9794,99.4226
1699.9436,99.4206
1700.9078,99.4211
1701.8721,99.4331
1702.8363,99.4539
1703.8005,99.4748
1704.7648,99.4871
1705.7290,99.485
1706.6932,99.4666
1707.6575,99.4353
1708.6217,99.3963
1709.5859,99.3513
1710.5502,99.2986
1711.5144,99.2367
1712.4786,99.1688
1713.4429,99.105
1714.4071,99.0607
1715.3713,99.0444
1716.3356,99.0378
1717.2998,99.005
1718.2640,98.9431
1719.2283,98.8804
1720.1925,98.8311
1721.1567,98.7894
1722.1210,98.746
1723.0852,98.6964
1724.0494,98.6415
1725.0137,98.5844
1725.9779,98.5278
1726.9421,98.4719
1727.9064,98.4148
1728.8706,98.3558
1729.8348,98.3
1730.7991,98.2613
1731.7633,98.258
1732.7275,98.2946
1733.6918,98.3473
1734.6560,98.387
1735.6202,98.4099
1736.5845,98.4273
1737.5487,98.4485
1738.5129,98.4792
1739.4772,98.5219
1740.4414,98.5729
1741.4056,98.6224
1742.3699,98.6629
1743.3341,98.6938
1744.2983,98.7193
1745.2626,98.7446
1746.2268,98.7756
1747.1910,98.819
1748.1553,98.8789
1749.1195,98.9505
1750.0837,99.0201
1751.0480,99.0782
1752.0122,99.1263
1752.9764,99.171
1753.9407,99.2177
1754.9049,99.2686
1755.8691,99.3221
1756.8334,99.3731
1757.7976,99.4166
1758.7618,99.4529
1759.7261,99.4885
1760.6903,99.5303
1761.6545,99.5784
1762.6188,99.6257
1763.5830,99.664
1764.5472,99.6902
1765.5115,99.7072
1766.4757,99.7209
1767.4399,99.7381
1768.4042,99.7649
1769.3684,99.806
1770.3326,99.8617
1771.2969,99.9234
1772.2611,99.9747
1773.2253,100.004
1774.1896,100.015
1775.1538,100.015
1776.1180,100.014
1777.0823,100.014
1778.0465,100.02
1779.0107,100.029
1779.9750,100.039
1780.9392,100.047
1781.9034,100.051
1782.8677,100.053
1783.8319,100.059
1784.7961,100.068
1785.7604,100.075
1786.7246,100.074
1787.6888,100.063
1788.6531,100.046
1789.6173,100.037
1790.5815,100.047
1791.5458,100.077
1792.5100,100.109
1793.4742,100.126
1794.4385,100.126
1795.4027,100.117
1796.3669,100.105
1797.3312,100.099
1798.2954,100.103
1799.2596,100.118
1800.2239,100.139
1801.1881,100.157
1802.1523,100.165
1803.1166,100.163
1804.0808,100.153
1805.0450,100.139
1806.0093,100.124
1806.9735,100.113
1807.9377,100.109
1808.9020,100.117
1809.8662,100.134
1810.8304,100.154
1811.7947,100.169
1812.7589,100.175
1813.7231,100.175
1814.6874,100.171
1815.6516,100.168
1816.6158,100.167
1817.5801,100.167
1818.5443,100.164
1819.5085,100.154
1820.4728,100.139
1821.4370,100.122
1822.4012,100.109
1823.3655,100.104
1824.3297,100.104
1825.2939,100.108
1826.2582,100.114
1827.2224,100.123
1828.1866,100.138
1829.1509,100.157
1830.1151,100.172
1831.0793,100.177
1832.0436,100.174
1833.0078,100.167
1833.9720,100.161
1834.9363,100.159
1835.9005,100.162
1836.8647,100.163
1837.8290,100.156
1838.7932,100.138
1839.7574,100.111
1840.7217,100.085
1841.6859,100.071
1842.6501,100.08
1843.6144,100.11
1844.5786,100.146
1845.5428,100.171
1846.5071,100.181
1847.4713,100.179
1848.4355,100.172
1849.3998,100.166
1850.3640,100.161
1851.3282,100.158
1852.2925,100.157
1853.2567,100.155
1854.2209,100.152
1855.1852,100.149
1856.1494,100.145
1857.1136,100.142
1858.0779,100.14
1859.0421,100.139
1860.0063,100.14
1860.9706,100.139
1861.9348,100.134
1862.8990,100.124
1863.8633,100.11
1864.8275,100.096
1865.7917,100.092
1866.7560,100.104
1867.7202,100.131
1868.6844,100.163
1869.6487,100.184
1870.6129,100.192
1871.5771,100.189
1872.5414,100.183
1873.5056,100.176
1874.4698,100.171
1875.4341,100.168
1876.3983,100.166
1877.3625,100.162
1878.3268,100.157
1879.2910,100.154
1880.2552,100.153
1881.2195,100.157
1882.1837,100.161
1883.1479,100.163
1884.1122,100.159
1885.0764,100.152
1886.0406,100.144
1887.0049,100.142
1887.9691,100.148
1888.9333,100.159
1889.8976,100.17
1890.8618,100.175
1891.8260,100.174
1892.7903,100.171
1893.7545,100.168
1894.7188,100.17
1895.6830,100.176
1896.6472,100.182
1897.6115,100.187
1898.5757,100.188
1899.5399,100.185
1900.5042,100.181
1901.4684,100.177
1902.4326,100.174
1903.3969,100.17
1904.3611,100.167
1905.3253,100.165
1906.2896,100.165
1907.2538,100.17
1908.2180,100.18
1909.1823,100.191
1910.1465,100.201
1911.1107,100.203
1912.0750,100.197
1913.0392,100.186
1914.0034,100.174
1914.9677,100.167
1915.9319,100.168
1916.8961,100.175
1917.8604,100.184
1918.8246,100.19
1919.7888,100.193
1920.7531,100.198
1921.7173,100.208
1922.6815,100.221
1923.6458,100.233
1924.6100,100.239
1925.5742,100.235
1926.5385,100.226
1927.5027,100.214
1928.4669,100.206
1929.4312,100.201
1930.3954,100.201
1931.3596,100.204
1932.3239,100.206
1933.2881,100.209
1934.2523,100.211
1935.2166,100.21
1936.1808,100.206
1937.1450,100.197
1938.1093,100.185
1939.0735,100.176
1940.0377,100.172
1941.0020,100.178
1941.9662,100.19
1942.9304,100.204
1943.8947,100.214
1944.8589,100.216
1945.8231,100.213
1946.7874,100.207
1947.7516,100.201
1948.7158,100.196
1949.6801,100.192
1950.6443,100.189
1951.6085,100.186
1952.5728,100.184
1953.5370,100.182
1954.5012,100.181
1955.4655,100.18
1956.4297,100.177
1957.3939,100.175
1958.3582,100.175
1959.3224,100.176
1960.2866,100.177
1961.2509,100.178
1962.2151,100.177
1963.1793,100.174
1964.1436,100.173
1965.1078,100.174
1966.0720,100.177
1967.0363,100.179
1968.0005,100.179
1968.9647,100.175
1969.9290,100.172
1970.8932,100.17
1971.8574,100.173
1972.8217,100.177
1973.7859,100.182
1974.7501,100.182
1975.7144,100.179
1976.6786,100.172
1977.6428,100.165
1978.6071,100.16
1979.5713,100.157
1980.5355,100.155
1981.4998,100.153
1982.4640,100.151
1983.4282,100.151
1984.3925,100.152
1985.3567,100.154
1986.3209,100.157
1987.2852,100.158
1988.2494,100.158
1989.2136,100.157
1990.1779,100.157
1991.1421,100.159
1992.1063,100.163
1993.0706,100.165
1994.0348,100.167
1994.9990,100.166
1995.9633,100.163
1996.9275,100.161
1997.8917,100.159
1998.8560,100.157
1999.8202,100.156
2000.7844,100.155
2001.7487,100.152
2002.7129,100.149
2003.6771,100.146
2004.6414,100.143
2005.6056,100.14
2006.5698,100.139
2007.5341,100.138
2008.4983,100.137
2009.4625,100.133
2010.4268,100.129
2011.3910,100.123
2012.3552,100.119
2013.3195,100.118
2014.2837,100.121
2015.2479,100.127
2016.2122,100.135
2017.1764,100.14
2018.1406,100.142
2019.1049,100.138
2020.0691,100.132
2021.0333,100.127
2021.9976,100.124
2022.9618,100.123
2023.9260,100.123
2024.8903,100.122
2025.8545,100.12
2026.8187,100.116
2027.7830,100.112
2028.7472,100.108
2029.7114,100.106
2030.6757,100.105
2031.6399,100.105
2032.6041,100.105
2033.5684,100.107
2034.5326,100.109
2035.4968,100.111
2036.4611,100.113
2037.4253,100.113
2038.3895,100.112
2039.3538,100.11
2040.3180,100.108
2041.2822,100.107
2042.2465,100.106
2043.2107,100.107
2044.1749,100.107
2045.1392,100.106
2046.1034,100.105
2047.0676,100.103
2048.0320,100.1
2048.9961,100.098
2049.9604,100.095
2050.9246,100.092
2051.8889,100.089
2052.8530,100.086
2053.8174,100.082
2054.7815,100.077
2055.7458,100.072
2056.7100,100.069
2057.6743,100.068
2058.6384,100.07
2059.6028,100.075
2060.5669,100.081
2061.5313,100.089
2062.4954,100.096
2063.4597,100.101
2064.4238,100.103
2065.3882,100.101
2066.3523,100.093
2067.3167,100.082
2068.2808,100.071
2069.2451,100.062
2070.2092,100.056
2071.1736,100.055
2072.1377,100.058
2073.1021,100.062
2074.0662,100.066
2075.0305,100.07
2075.9946,100.073
2076.9590,100.074
2077.9231,100.072
2078.8875,100.067
2079.8516,100.06
2080.8159,100.054
2081.7800,100.051
2082.7444,100.053
2083.7085,100.059
2084.6729,100.067
2085.6370,100.074
2086.6013,100.078
2087.5654,100.079
2088.5298,100.078
2089.4939,100.077
2090.4583,100.077
2091.4224,100.077
2092.3867,100.076
2093.3508,100.074
2094.3152,100.07
2095.2793,100.065
2096.2437,100.059
2097.2078,100.053
2098.1721,100.048
2099.1362,100.045
2100.1006,100.045
2101.0647,100.048
2102.0291,100.055
2102.9932,100.062
2103.9575,100.066
2104.9216,100.066
2105.8860,100.062
2106.8501,100.055
2107.8145,100.048
2108.7786,100.044
2109.7429,100.043
2110.7070,100.044
2111.6714,100.047
2112.6355,100.049
2113.5999,100.051
2114.5640,100.051
2115.5283,100.049
2116.4924,100.044
2117.4568,100.038
2118.4209,100.032
2119.3853,100.028
2120.3494,100.026
2121.3137,100.027
2122.2778,100.029
2123.2422,100.031
2124.2063,100.032
2125.1707,100.031
2126.1348,100.03
2127.0991,100.027
2128.0632,100.024
2129.0276,100.022
2129.9917,100.021
2130.9561,100.021
2131.9202,100.022
2132.8845,100.025
2133.8486,100.029
2134.8130,100.033
2135.7771,100.038
2136.7415,100.042
2137.7056,100.043
2138.6699,100.041
2139.6340,100.037
2140.5984,100.031
2141.5625,100.025
2142.5269,100.021
2143.4910,100.017
2144.4553,100.014
2145.4194,100.013
2146.3838,100.014
2147.3479,100.018
2148.3123,100.022
2149.2764,100.028
2150.2407,100.032
2151.2048,100.035
2152.1692,100.036
2153.1333,100.034
2154.0977,100.032
2155.0618,100.028
2156.0261,100.024
2156.9902,100.019
2157.9546,100.016
2158.9187,100.016
2159.8831,100.018
2160.8472,100.021
2161.8115,100.025
2162.7756,100.028
2163.7400,100.03
2164.7041,100.032
2165.6685,100.035
2166.6326,100.038
2167.5969,100.041
2168.5610,100.041
2169.5254,100.038
2170.4895,100.033
2171.4539,100.027
2172.4180,100.022
2173.3823,100.02
2174.3464,100.02
2175.3108,100.022
2176.2749,100.024
2177.2393,100.026
2178.2034,100.029
2179.1677,100.032
2180.1318,100.036
2181.0962,100.041
2182.0603,100.046
2183.0247,100.049
2183.9888,100.051
2184.9531,100.051
2185.9172,100.049
2186.8816,100.045
2187.8457,100.041
2188.8101,100.038
2189.7742,100.038
2190.7385,100.04
2191.7026,100.046
2192.6670,100.052
2193.6311,100.056
2194.5955,100.057
2195.5596,100.056
2196.5239,100.053
2197.4880,100.051
2198.4524,100.049
2199.4165,100.047
2200.3809,100.045
2201.3450,100.042
2202.3093,100.04
2203.2734,100.037
2204.2378,100.036
2205.2019,100.036
2206.1663,100.035
2207.1304,100.035
2208.0947,100.035
2209.0588,100.036
2210.0232,100.038
2210.9873,100.04
2211.9517,100.041
2212.9158,100.039
2213.8801,100.034
2214.8442,100.029
2215.8086,100.025
2216.7727,100.025
2217.7371,100.029
2218.7012,100.036
2219.6655,100.045
2220.6296,100.052
2221.5940,100.055
2222.5581,100.053
2223.5225,100.047
2224.4866,100.04
2225.4509,100.034
2226.4150,100.031
2227.3794,100.03
2228.3435,100.031
2229.3079,100.032
2230.2720,100.03
2231.2363,100.028
2232.2004,100.026
2233.1648,100.025
2234.1289,100.027
2235.0933,100.03
2236.0574,100.032
2237.0217,100.031
2237.9858,100.027
2238.9502,100.02
2239.9143,100.013
2240.8787,100.005
2241.8428,99.9985
2242.8071,99.9923
2243.7712,99.9873
2244.7356,99.9841
2245.6997,99.9837
2246.6641,99.9862
2247.6282,99.9906
2248.5925,99.9945
2249.5566,99.9939
2250.5210,99.9809
2251.4851,99.9635
2252.4495,99.9433
2253.4136,99.9223
2254.3779,99.9028
2255.3420,99.8859
2256.3064,99.8719
2257.2705,99.8602
2258.2349,99.8498
2259.1990,99.8397
2260.1633,99.8292
2261.1274,99.8175
2262.0918,99.8044
2263.0559,99.7899
2264.0203,99.7742
2264.9844,99.7575
2265.9487,99.7405
2266.9128,99.7237
2267.8772,99.7078
2268.8413,99.6932
2269.8057,99.6801
2270.7698,99.6683
2271.7341,99.6576
2272.6982,99.648
2273.6626,99.6398
2274.6267,99.6332
2275.5911,99.6275
2276.5552,99.6219
2277.5195,99.6152
2278.4836,99.6066
2279.4480,99.5961
2280.4121,99.584
2281.3765,99.57
2282.3406,99.5534
2283.3049,99.5328
2284.2690,99.5076
2285.2334,99.4776
2286.1975,99.4438
2287.1619,99.4073
2288.1260,99.3686
2289.0903,99.328
2290.0544,99.2856
2291.0188,99.2421
2291.9829,99.1986
2292.9473,99.156
2293.9114,99.1145
2294.8757,99.0734
2295.8398,99.031
2296.8042,98.9859
2297.7683,98.9378
2298.7327,98.887
2299.6968,98.8343
2300.6611,98.7795
2301.6252,98.7221
2302.5896,98.6606
2303.5537,98.5941
2304.5181,98.5222
2305.4822,98.4452
2306.4465,98.3638
2307.4106,98.2792
2308.3750,98.1934
2309.3391,98.1092
2310.3035,98.0297
2311.2676,97.9573
2312.2319,97.8911
2313.1960,97.8269
2314.1604,97.7584
2315.1245,97.6803
2316.0889,97.5915
2317.0530,97.4971
2318.0173,97.4065
2318.9814,97.3302
2319.9458,97.2745
2320.9099,97.2391
2321.8743,97.2195
2322.8384,97.211
2323.8027,97.2131
2324.7668,97.2282
2325.7312,97.2579
2326.6953,97.2995
2327.6597,97.3452
2328.6238,97.3843
2329.5881,97.4083
2330.5522,97.4151
2331.5166,97.4092
2332.4807,97.3987
2333.4451,97.3903
2334.4092,97.3886
2335.3735,97.3978
2336.3376,97.4221
2337.3020,97.4637
2338.2661,97.5204
2339.2305,97.5848
2340.1946,97.6443
2341.1589,97.6784
2342.1230,97.6566
2343.0874,97.5578
2344.0515,97.4089
2345.0159,97.2827
2345.9800,97.2274
2346.9443,97.2254
2347.9084,97.2246
2348.8728,97.1852
2349.8369,97.1058
2350.8013,97.0293
2351.7654,97.0322
2352.7297,97.1909
2353.6938,97.5304
2354.6582,97.9972
2355.6223,98.5024
2356.5867,98.987
2357.5508,99.4259
2358.5151,99.7879
2359.4792,100.028
2360.4436,100.12
2361.4077,100.075
2362.3721,99.9172
2363.3362,99.6629
2364.3005,99.321
2365.2646,98.9128
2366.2290,98.4764
2367.1931,98.0551
2368.1575,97.7227
2369.1216,97.4966
2370.0859,97.3503
2371.0500,97.2811
2372.0144,97.2812
2372.9785,97.3414
2373.9429,97.4536
2374.9070,97.6108
2375.8713,97.8047
2376.8354,98.0247
2377.7998,98.2591
2378.7639,98.4961
2379.7283,98.7263
2380.6924,98.9436
2381.6567,99.1446
2382.6208,99.3284
2383.5852,99.4948
2384.5493,99.6442
2385.5137,99.7771
2386.4778,99.8939
2387.4421,99.9958
2388.4063,100.084
2389.3706,100.135
2390.3347,100.138
2391.2991,100.136
2392.2632,100.132
2393.2275,100.129
2394.1917,100.13
2395.1560,100.136
2396.1201,100.146
2397.0845,100.156
2398.0486,100.161
2399.0129,100.159
2399.9771,100.15
2400.9414,100.14
2401.9055,100.132
2402.8699,100.132
2403.8340,100.138
2404.7983,100.149
2405.7625,100.16
2406.7268,100.167
2407.6909,100.171
2408.6553,100.171
2409.6194,100.17
2410.5837,100.169
2411.5479,100.166
2412.5122,100.162
2413.4763,100.155
2414.4407,100.148
2415.4048,100.142
2416.3691,100.139
2417.3333,100.139
2418.2976,100.142
2419.2617,100.145
2420.2261,100.147
2421.1902,100.147
2422.1545,100.144
2423.1187,100.139
2424.0830,100.134
2425.0471,100.132
2426.0115,100.132
2426.9756,100.136
2427.9399,100.141
2428.9041,100.144
2429.8684,100.145
2430.8325,100.144
2431.7969,100.14
2432.7610,100.138
2433.7253,100.138
2434.6895,100.14
2435.6538,100.143
2436.6179,100.145
2437.5823,100.144
2438.5464,100.139
2439.5107,100.133
2440.4749,100.129
2441.4392,100.127
2442.4033,100.13
2443.3677,100.134
2444.3318,100.139
2445.2961,100.14
2446.2603,100.138
2447.2246,100.132
2448.1887,100.126
2449.1531,100.122
2450.1172,100.123
2451.0815,100.126
2452.0457,100.13
2453.0100,100.133
2453.9741,100.131
2454.9385,100.126
2455.9026,100.118
2456.8669,100.11
2457.8311,100.105
2458.7954,100.104
2459.7595,100.106
2460.7239,100.111
2461.6880,100.116
2462.6523,100.12
2463.6165,100.122
2464.5808,100.122
2465.5449,100.123
2466.5093,100.126
2467.4734,100.129
2468.4377,100.134
2469.4019,100.138
2470.3662,100.14
2471.3303,100.14
2472.2947,100.138
2473.2588,100.135
2474.2231,100.131
2475.1873,100.129
2476.1516,100.128
2477.1157,100.129
2478.0801,100.132
2479.0442,100.134
2480.0085,100.137
2480.9727,100.139
2481.9370,100.141
2482.9011,100.143
2483.8655,100.147
2484.8296,100.151
2485.7939,100.155
2486.7581,100.158
2487.7224,100.158
2488.6865,100.154
2489.6509,100.147
2490.6150,100.14
2491.5793,100.132
2492.5435,100.128
2493.5078,100.127
2494.4719,100.13
2495.4363,100.134
2496.4004,100.138
2497.3647,100.14
2498.3289,100.14
2499.2932,100.137
2500.2573,100.133
2501.2217,100.13
2502.1858,100.127
2503.1501,100.124
2504.1143,100.122
2505.0786,100.12
2506.0427,100.118
2507.0071,100.119
2507.9712,100.123
2508.9355,100.128
2509.8997,100.132
2510.8640,100.134
2511.8281,100.133
2512.7925,100.13
2513.7566,100.126
2514.7209,100.125
2515.6851,100.126
2516.6494,100.13
2517.6135,100.136
2518.5779,100.142
2519.5420,100.148
2520.5063,100.154
2521.4705,100.157
2522.4348,100.158
2523.3989,100.154
2524.3633,100.146
2525.3274,100.138
2526.2917,100.133
2527.2559,100.131
2528.2202,100.135
2529.1843,100.142
2530.1487,100.15
2531.1128,100.158
2532.0771,100.165
2533.0413,100.17
2534.0056,100.173
2534.9697,100.174
2535.9341,100.172
2536.8982,100.168
2537.8625,100.163
2538.8267,100.161
2539.7910,100.161
2540.7551,100.164
2541.7195,100.17
2542.6836,100.175
2543.6479,100.18
2544.6121,100.184
2545.5764,100.185
2546.5405,100.185
2547.5049,100.183
2548.4690,100.181
2549.4333,100.178
2550.3975,100.175
2551.3618,100.172
2552.3259,100.169
2553.2903,100.166
2554.2544,100.164
2555.2188,100.164
2556.1829,100.166
2557.1472,100.17
2558.1113,100.174
2559.0757,100.178
2560.0398,100.181
2561.0042,100.183
2561.9683,100.182
2562.9326,100.18
2563.8967,100.177
2564.8611,100.175
2565.8252,100.174
2566.7896,100.176
2567.7537,100.181
2568.7180,100.189
2569.6821,100.198
2570.6465,100.206
2571.6106,100.21
2572.5750,100.209
2573.5391,100.203
2574.5034,100.194
2575.4675,100.185
2576.4319,100.179
2577.3960,100.177
2578.3604,100.18
2579.3245,100.184
2580.2888,100.188
2581.2529,100.19
2582.2173,100.19
2583.1814,100.189
2584.1458,100.189
2585.1099,100.19
2586.0742,100.193
2587.0383,100.195
2588.0027,100.197
2588.9668,100.198
2589.9312,100.198
2590.8953,100.196
2591.8596,100.195
2592.8237,100.194
2593.7881,100.193
2594.7522,100.192
2595.7166,100.193
2596.6807,100.195
2597.6450,100.198
2598.6091,100.203
2599.5735,100.208
2600.5376,100.214
2601.5020,100.218
2602.4661,100.22
2603.4304,100.22
2604.3945,100.218
2605.3589,100.213
2606.3230,100.205
2607.2874,100.196
2608.2515,100.187
2609.2158,100.179
2610.1799,100.173
2611.1443,100.171
2612.1084,100.171
2613.0728,100.172
2614.0369,100.174
2615.0012,100.175
2615.9653,100.176
2616.9297,100.177
2617.8938,100.179
2618.8582,100.181
2619.8223,100.183
2620.7866,100.186
2621.7507,100.188
2622.7151,100.19
2623.6792,100.192
2624.6436,100.192
2625.6077,100.189
2626.5720,100.182
2627.5361,100.173
2628.5005,100.166
2629.4646,100.162
2630.4290,100.162
2631.3931,100.165
2632.3574,100.169
2633.3215,100.172
2634.2859,100.174
2635.2500,100.177
2636.2144,100.181
2637.1785,100.186
2638.1428,100.19
2639.1069,100.193
2640.0713,100.192
2641.0354,100.188
2641.9998,100.184
2642.9639,100.18
2643.9282,100.177
2644.8923,100.175
2645.8567,100.173
2646.8208,100.173
2647.7852,100.174
2648.7493,100.176
2649.7136,100.178
2650.6777,100.18
2651.6421,100.178
2652.6062,100.173
2653.5706,100.166
2654.5347,100.159
2655.4990,100.153
2656.4631,100.151
2657.4275,100.151
2658.3916,100.153
2659.3560,100.154
2660.3201,100.153
2661.2844,100.152
2662.2485,100.15
2663.2129,100.15
2664.1770,100.149
2665.1414,100.148
2666.1055,100.147
2667.0698,100.146
2668.0339,100.146
2668.9983,100.147
2669.9624,100.15
2670.9268,100.152
2671.8909,100.151
2672.8552,100.148
2673.8193,100.144
2674.7837,100.142
2675.7478,100.142
2676.7122,100.144
2677.6763,100.145
2678.6406,100.145
2679.6047,100.143
2680.5691,100.14
2681.5332,100.137
2682.4976,100.135
2683.4617,100.13
2684.4260,100.123
2685.3901,100.115
2686.3545,100.106
2687.3186,100.1
2688.2830,100.097
2689.2471,100.098
2690.2114,100.101
2691.1755,100.104
2692.1399,100.105
2693.1040,100.103
2694.0684,100.1
2695.0325,100.097
2695.9968,100.094
2696.9609,100.093
2697.9253,100.094
2698.8894,100.096
2699.8538,100.098
2700.8179,100.098
2701.7822,100.097
2702.7463,100.096
2703.7107,100.096
2704.6748,100.096
2705.6392,100.096
2706.6033,100.095
2707.5676,100.09
2708.5317,100.083
2709.4961,100.074
2710.4602,100.066
2711.4246,100.062
2712.3887,100.061
2713.3530,100.064
2714.3171,100.069
2715.2815,100.074
2716.2456,100.079
2717.2100,100.082
2718.1741,100.083
2719.1384,100.082
2720.1025,100.08
2721.0669,100.075
2722.0310,100.069
2722.9954,100.061
2723.9595,100.054
2724.9238,100.048
2725.8879,100.044
2726.8523,100.043
2727.8164,100.044
2728.7808,100.047
2729.7449,100.05
2730.7092,100.052
2731.6733,100.051
2732.6377,100.049
2733.6018,100.046
2734.5662,100.042
2735.5303,100.038
2736.4946,100.036
2737.4587,100.036
2738.4231,100.038
2739.3872,100.042
2740.3516,100.046
2741.3157,100.049
2742.2800,100.051
2743.2441,100.049
2744.2085,100.046
2745.1726,100.042
2746.1370,100.04
2747.1011,100.04
2748.0654,100.042
2749.0295,100.044
2749.9939,100.046
2750.9580,100.046
2751.9224,100.047
2752.8865,100.048
2753.8508,100.049
2754.8149,100.048
2755.7793,100.044
2756.7434,100.036
2757.7078,100.026
2758.6719,100.018
2759.6362,100.014
2760.6003,100.015
2761.5647,100.018
2762.5288,100.022
2763.4932,100.025
2764.4573,100.027
2765.4216,100.027
2766.3857,100.028
2767.3501,100.029
2768.3142,100.029
2769.2786,100.026
2770.2427,100.021
2771.2070,100.013
2772.1711,100.006
2773.1355,99.999
2774.0996,99.995
2775.0640,99.9932
2776.0281,99.9925
2776.9924,99.9916
2777.9565,99.9899
2778.9209,99.9874
2779.8850,99.9852
2780.8494,99.9845
2781.8135,99.9862
2782.7778,99.9905
2783.7419,99.9967
2784.7063,100.003
2785.6704,100.008
2786.6348,100.009
2787.5989,100.007
2788.5632,100.001
2789.5273,99.9926
2790.4917,99.9827
2791.4558,99.9731
2792.4202,99.9655
2793.3843,99.9616
2794.3486,99.9626
2795.3127,99.9678
2796.2771,99.9752
2797.2412,99.9814
2798.2056,99.9835
2799.1697,99.9803
2800.1340,99.9727
2801.0981,99.963
2802.0625,99.9541
2803.0266,99.9479
2803.9910,99.9452
2804.9551,99.9457
2805.9194,99.9484
2806.8835,99.9513
2807.8479,99.9524
2808.8120,99.9497
2809.7764,99.9427
2810.7405,99.9328
2811.7048,99.923
2812.6689,99.9166
2813.6333,99.9155
2814.5974,99.9189
2815.5618,99.9239
2816.5259,99.9275
2817.4902,99.9277
2818.4543,99.9244
2819.4187,99.9188
2820.3828,99.9124
2821.3472,99.9062
2822.3113,99.9005
2823.2756,99.8957
2824.2397,99.8921
2825.2041,99.8897
2826.1682,99.8878
2827.1326,99.8856
2828.0967,99.8822
2829.0610,99.8772
2830.0251,99.8713
2830.9895,99.8651
2831.9536,99.8358
2832.9180,99.8083
2833.8821,99.7838
2834.8464,99.7644
2835.8105,99.7515
2836.7749,99.7456
2837.7390,99.7457
2838.7034,99.7497
2839.6675,99.756
2840.6318,99.7643
2841.5959,99.7766
2842.5603,99.7958
2843.5244,99.8246
2844.4888,99.8647
2845.4529,99.9159
2846.4172,99.9767
2847.3813,100.044
2848.3457,100.111
2849.3098,100.173
2850.2742,100.221
2851.2383,100.249
2852.2026,100.256
2853.1667,100.242
2854.1311,100.21
2855.0952,100.164
2856.0596,100.11
2857.0237,100.052
2857.9880,99.9927
2858.9521,99.9352
2859.9165,99.8809
2860.8806,99.8298
2861.8450,99.7815
2862.8091,99.7359
2863.7734,99.6939
2864.7375,99.657
2865.7019,99.6267
2866.6660,99.6035
2867.6304,99.5859
2868.5945,99.5713
2869.5588,99.5562
2870.5229,99.5374
2871.4873,99.5131
2872.4514,99.4834
2873.4158,99.4511
2874.3799,99.4208
2875.3442,99.3973
2876.3083,99.3834
2877.2727,99.3786
2878.2368,99.3794
2879.2012,99.3806
2880.1653,99.3782
2881.1296,99.371
2882.0938,99.3609
2883.0581,99.3513
2884.0222,99.345
2884.9866,99.3426
2885.9507,99.3426
2886.9150,99.3432
2887.8792,99.3433
2888.8435,99.3433
2889.8076,99.3438
2890.7720,99.3443
2891.7361,99.3428
2892.7004,99.3375
2893.6646,99.3302
2894.6289,99.3271
2895.5930,99.3373
2896.5574,99.3675
2897.5215,99.4162
2898.4858,99.4722
2899.4500,99.5185
2900.4143,99.5402
2901.3784,99.5319
2902.3428,99.5001
2903.3069,99.4592
2904.2712,99.4245
2905.2354,99.4057
2906.1997,99.4056
2907.1638,99.4217
2908.1282,99.4492
2909.0923,99.4836
2910.0566,99.5212
2911.0208,99.5595
2911.9851,99.5977
2912.9492,99.6368
2913.9136,99.6789
2914.8777,99.7257
2915.8420,99.7765
2916.8062,99.8406
2917.7705,99.9107
2918.7346,99.9704
2919.6990,100.017
2920.6631,100.052
2921.6274,100.078
2922.5916,100.095
2923.5559,100.106
2924.5200,100.107
2925.4844,100.094
2926.4485,100.065
2927.4128,100.02
2928.3770,99.9592
2929.3413,99.89
2930.3054,99.8191
2931.2698,99.7528
2932.2339,99.6943
2933.1982,99.6434
2934.1624,99.5977
2935.1267,99.5546
2936.0908,99.5135
2937.0552,99.4752
2938.0193,99.442
2938.9836,99.4152
2939.9478,99.3947
2940.9121,99.3792
2941.8762,99.3667
2942.8406,99.3565
2943.8047,99.3493
2944.7690,99.3476
2945.7332,99.3546
2946.6975,99.373
2947.6616,99.4035
2948.6260,99.4446
2949.5901,99.4931
2950.5544,99.5452
2951.5186,99.5979
2952.4829,99.6496
2953.4470,99.7
2954.4114,99.7491
2955.3755,99.7966
2956.3398,99.8412
2957.3040,99.8813
2958.2683,99.9156
2959.2324,99.9442
2960.1968,99.9681
2961.1609,99.9897
2962.1252,100.011
2963.0894,100.035
2964.0537,100.06
2965.0178,100.086
2965.9822,100.109
2966.9463,100.128
2967.9106,100.14
2968.8748,100.147
2969.8391,100.153
2970.8032,100.159
2971.7676,100.164
2972.7317,100.166
2973.6960,100.161
2974.6602,100.15
2975.6245,100.134
2976.5886,100.119
2977.5530,100.104
2978.5171,100.094
2979.4814,100.088
2980.4456,100.084
2981.4099,100.082
2982.3740,100.084
2983.3384,100.095
2984.3025,100.117
2985.2668,100.144
2986.2310,100.168
2987.1953,100.175
2988.1594,100.155
2989.1238,100.105
2990.0879,100.033
2991.0522,99.9521
2992.0164,99.8751
2992.9807,99.8114
2993.9448,99.7632
2994.9092,99.7262
2995.8733,99.6937
2996.8376,99.6599
2997.8018,99.6224
2998.7661,99.5824
2999.7302,99.5426
3000.6946,99.5049
3001.6587,99.4688
3002.6230,99.4311
3003.5872,99.3884
3004.5515,99.3387
3005.5156,99.2829
3006.4800,99.2247
3007.4441,99.1689
3008.4084,99.1189
3009.3726,99.0755
3010.3369,99.0371
3011.3010,99.0007
3012.2654,98.9634
3013.2295,98.9234
3014.1938,98.8804
3015.1580,98.8351
3016.1223,98.7887
3017.0864,98.7431
3018.0508,98.7007
3019.0149,98.6635
3019.9792,98.6321
3020.9434,98.6054
3021.9077,98.5802
3022.8718,98.553
3023.8362,98.5216
3024.8003,98.4867
3025.7646,98.4515
3026.7288,98.4203
3027.6931,98.3958
3028.6572,98.3772
3029.6216,98.3608
3030.5857,98.3414
3031.5500,98.3153
3032.5142,98.2827
3033.4785,98.2475
3034.4426,98.2153
3035.4070,98.19
3036.3711,98.1726
3037.3354,98.1606
3038.2996,98.1502
3039.2639,98.1378
3040.2280,98.1222
3041.1924,98.1044
3042.1565,98.0869
3043.1208,98.0719
3044.0850,98.0602
3045.0493,98.0514
3046.0134,98.044
3046.9778,98.0367
3047.9419,98.0287
3048.9063,98.0197
3049.8704,98.0103
3050.8347,98.0004
3051.7988,97.9899
3052.7632,97.9787
3053.7273,97.9671
3054.6917,97.9562
3055.6558,97.9469
3056.6201,97.9397
3057.5842,97.9339
3058.5486,97.9281
3059.5127,97.9212
3060.4771,97.9136
3061.4412,97.9068
3062.4055,97.9022
3063.3696,97.9004
3064.3340,97.9
3065.2981,97.8985
3066.2625,97.8939
3067.2266,97.8856
3068.1909,97.8748
3069.1550,97.8633
3070.1194,97.8527
3071.0835,97.8436
3072.0479,97.8356
3073.0120,97.8284
3073.9763,97.8221
3074.9404,97.8168
3075.9048,97.8123
3076.8689,97.8079
3077.8333,97.8024
3078.7974,97.7951
3079.7617,97.7864
3080.7258,97.7779
3081.6902,97.7717
3082.6543,97.7691
3083.6187,97.7699
3084.5828,97.7718
3085.5471,97.7712
3086.5112,97.7645
3087.4756,97.7501
3088.4397,97.7294
3089.4041,97.7073
3090.3682,97.69
3091.3325,97.683
3092.2966,97.6878
3093.2610,97.7015
3094.2251,97.7174
3095.1895,97.7285
3096.1536,97.7307
3097.1179,97.724
3098.0820,97.7123
3099.0464,97.7
3100.0105,97.6896
3100.9749,97.6811
3101.9390,97.6729
3102.9033,97.664
3103.8674,97.6549
3104.8318,97.6472
3105.7959,97.6421
3106.7603,97.6391
3107.7244,97.6367
3108.6887,97.6327
3109.6528,97.6266
3110.6172,97.6195
3111.5813,97.6133
3112.5457,97.6093
3113.5098,97.6075
3114.4741,97.6065
3115.4382,97.605
3116.4026,97.6028
3117.3667,97.6009
3118.3311,97.6004
3119.2952,97.6007
3120.2595,97.5991
3121.2236,97.5922
3122.1880,97.5775
3123.1521,97.5558
3124.1165,97.5302
3125.0806,97.5051
3126.0449,97.4837
3127.0090,97.4672
3127.9734,97.4555
3128.9375,97.4487
3129.9019,97.4476
3130.8660,97.4527
3131.8303,97.4624
3132.7944,97.4722
3133.7588,97.476
3134.7229,97.4693
3135.6873,97.4519
3136.6514,97.4287
3137.6157,97.4069
3138.5798,97.3926
3139.5442,97.3875
3140.5083,97.3884
3141.4727,97.3895
3142.4368,97.3853
3143.4011,97.3738
3144.3652,97.3568
3145.3296,97.3387
3146.2937,97.3237
3147.2581,97.3137
3148.2222,97.308
3149.1865,97.304
3150.1506,97.2995
3151.1150,97.2936
3152.0791,97.2868
3153.0435,97.2799
3154.0076,97.2728
3154.9719,97.2641
3155.9360,97.252
3156.9004,97.2355
3157.8645,97.2151
3158.8289,97.1927
3159.7930,97.1717
3160.7573,97.1558
3161.7214,97.1481
3162.6858,97.1499
3163.6499,97.1592
3164.6143,97.1714
3165.5784,97.1804
3166.5427,97.1814
3167.5068,97.1735
3168.4712,97.1594
3169.4353,97.084
3170.3997,97.0706
3171.3638,97.0606
3172.3281,97.0523
3173.2922,97.0441
3174.2566,97.0356
3175.2207,97.0273
3176.1851,97.0194
3177.1492,97.0109
3178.1135,96.9995
3179.0776,96.9845
3180.0420,96.9671
3181.0061,96.9503
3181.9705,96.9361
3182.9346,96.9247
3183.8989,96.9144
3184.8630,96.904
3185.8274,96.894
3186.7915,96.8868
3187.7559,96.884
3188.7200,96.8844
3189.6843,96.884
3190.6484,96.8782
3191.6128,96.8645
3192.5769,96.8446
3193.5413,96.8228
3194.5054,96.8031
3195.4697,96.7873
3196.4338,96.7751
3197.3982,96.7658
3198.3623,96.7603
3199.3267,96.7611
3200.2908,96.7695
3201.2551,96.7828
3202.2192,96.7943
3203.1836,96.7954
3204.1477,96.7813
3205.1121,96.7535
3206.0762,96.7204
3207.0405,96.6928
3208.0046,96.6788
3208.9690,96.6793
3209.9331,96.6885
3210.8975,96.6979
3211.8616,96.7007
3212.8259,96.6949
3213.7900,96.683
3214.7544,96.6694
3215.7185,96.6581
3216.6829,96.6507
3217.6470,96.6474
3218.6113,96.6466
3219.5754,96.6464
3220.5398,96.644
3221.5039,96.6365
3222.4683,96.6221
3223.4324,96.6011
3224.3967,96.5768
3225.3608,96.5544
3226.3252,96.5397
3227.2893,96.5361
3228.2537,96.5429
3229.2178,96.555
3230.1821,96.5658
3231.1462,96.5692
3232.1106,96.5631
3233.0747,96.5489
3234.0391,96.5304
3235.0032,96.5112
3235.9675,96.4929
3236.9316,96.4755
3237.8960,96.4584
3238.8601,96.4426
3239.8245,96.4302
3240.7886,96.4237
3241.7529,96.4236
3242.7170,96.4279
3243.6814,96.4322
3244.6455,96.4318
3245.6099,96.4246
3246.5740,96.4112
3247.5383,96.3945
3248.5024,96.3778
3249.4668,96.3643
3250.4309,96.3558
3251.3953,96.3532
3252.3594,96.355
3253.3237,96.3578
3254.2878,96.3566
3255.2522,96.3473
3256.2163,96.3287
3257.1807,96.3043
3258.1448,96.2797
3259.1091,96.2606
3260.0732,96.2494
3261.0376,96.2446
3262.0017,96.2419
3262.9661,96.2375
3263.9302,96.2293
3264.8945,96.2181
3265.8586,96.2058
3266.8230,96.1939
3267.7871,96.1833
3268.7515,96.174
3269.7156,96.166
3270.6799,96.1598
3271.6440,96.1555
3272.6084,96.1529
3273.5725,96.1512
3274.5369,96.1492
3275.5010,96.1466
3276.4653,96.1438
3277.4294,96.1422
3278.3938,96.1426
3279.3579,96.1451
3280.3223,96.1483
3281.2864,96.1502
3282.2507,96.1489
3283.2148,96.1443
3284.1792,96.1376
3285.1433,96.1313
3286.1077,96.1272
3287.0718,96.1256
3288.0361,96.126
3289.0002,96.1265
3289.9646,96.1259
3290.9287,96.1232
3291.8931,96.1177
3292.8572,96.1088
3293.8215,96.0965
3294.7856,96.0822
3295.7500,96.0692
3296.7141,96.0622
3297.6785,96.0653
3298.6426,96.0797
3299.6069,96.1023
3300.5710,96.1273
3301.5354,96.1477
3302.4995,96.1591
3303.4639,96.1609
3304.4280,96.1557
3305.3923,96.147
3306.3564,96.1377
3307.3208,96.1291
3308.2849,96.1216
3309.2493,96.1157
3310.2134,96.1122
3311.1777,96.1118
3312.1418,96.114
3313.1062,96.1168
3314.0703,96.1173
3315.0347,96.113
3315.9988,96.1031
3316.9631,96.0896
3317.9272,96.076
3318.8916,96.0665
3319.8557,96.0641
3320.8201,96.0695
3321.7842,96.0807
3322.7485,96.0939
3323.7126,96.1053
3324.6770,96.113
3325.6411,96.1174
3326.6055,96.1206
3327.5696,96.1243
3328.5339,96.1286
3329.4980,96.1319
3330.4624,96.1318
3331.4265,96.1278
3332.3909,96.1222
3333.3550,96.1196
3334.3193,96.1249
3335.2834,96.1406
3336.2478,96.1649
3337.2119,96.1923
3338.1763,96.2154
3339.1404,96.2284
3340.1047,96.2295
3341.0688,96.2217
3342.0332,96.2116
3342.9973,96.2065
3343.9617,96.2108
3344.9258,96.2246
3345.8901,96.2442
3346.8542,96.2641
3347.8186,96.2796
3348.7827,96.2885
3349.7471,96.2901
3350.7112,96.2849
3351.6755,96.2738
3352.6396,96.2589
3353.6040,96.2436
3354.5681,96.2331
3355.5325,96.2316
3356.4966,96.2402
3357.4609,96.2557
3358.4250,96.2714
3359.3894,96.2808
3360.3535,96.2813
3361.3179,96.2756
3362.2820,96.2702
3363.2463,96.2724
3364.2104,96.2864
3365.1748,96.3113
3366.1389,96.3419
3367.1033,96.3706
3368.0674,96.3912
3369.0317,96.4008
3369.9958,96.4012
3370.9602,96.3982
3371.9243,96.3988
3372.8887,96.4085
3373.8528,96.4274
3374.8171,96.4498
3375.7813,96.4664
3376.7456,96.4698
3377.7097,96.4588
3378.6741,96.44
3379.6382,96.4242
3380.6025,96.4201
3381.5667,96.4297
3382.5310,96.4469
3383.4951,96.4612
3384.4595,96.4638
3385.4236,96.4529
3386.3879,96.4346
3387.3521,96.4196
3388.3164,96.4176
3389.2805,96.4328
3390.2449,96.4616
3391.2090,96.4945
3392.1733,96.5199
3393.1375,96.5299
3394.1018,96.5234
3395.0659,96.5066
3396.0303,96.4885
3396.9944,96.4768
3397.9587,96.4748
3398.9229,96.4808
3399.8872,96.4901
3400.8513,96.499
3401.8157,96.5066
3402.7798,96.5147
3403.7441,96.5255
3404.7083,96.5396
3405.6726,96.5549
3406.6367,96.5678
3407.6011,96.5756
3408.5652,96.5781
3409.5295,96.5781
3410.4937,96.5791
3411.4580,96.583
3412.4221,96.5892
3413.3865,96.595
3414.3506,96.5984
3415.3149,96.5995
3416.2791,96.6015
3417.2434,96.6077
3418.2075,96.6198
3419.1719,96.6359
3420.1360,96.6524
3421.1003,96.6659
3422.0645,96.676
3423.0288,96.6838
3423.9929,96.6905
3424.9573,96.6961
3425.9214,96.7
3426.8857,96.7027
3427.8499,96.7062
3428.8142,96.7126
3429.7783,96.7233
3430.7427,96.7375
3431.7068,96.7535
3432.6711,96.7694
3433.6353,96.7847
3434.5996,96.8
3435.5637,96.8157
3436.5281,96.8309
3437.4922,96.8425
3438.4565,96.8467
3439.4207,96.8399
3440.3850,96.8218
3441.3491,96.797
3442.3135,96.7751
3443.2776,96.7682
3444.2419,96.7851
3445.2061,96.8263
3446.1704,96.8806
3447.1345,96.9302
3448.0989,96.9604
3449.0630,96.9683
3450.0273,96.9629
3450.9915,96.9582
3451.9558,96.9649
3452.9199,96.9854
3453.8843,97.0128
3454.8484,97.0365
3455.8127,97.0489
3456.7769,97.0511
3457.7412,97.0513
3458.7053,97.0588
3459.6697,97.0782
3460.6338,97.1064
3461.5981,97.1347
3462.5623,97.1554
3463.5266,97.1665
3464.4907,97.1725
3465.4551,97.1814
3466.4192,97.1987
3467.3835,97.2241
3468.3477,97.2514
3469.3120,97.2724
3470.2761,97.2822
3471.2405,97.2816
3472.2046,97.2768
3473.1689,97.2753
3474.1331,97.2822
3475.0974,97.2983
3476.0615,97.3213
3477.0259,97.3487
3477.9900,97.3793
3478.9543,97.4132
3479.9185,97.448
3480.8828,97.4786
3481.8469,97.4987
3482.8113,97.5058
3483.7754,97.5038
3484.7397,97.501
3485.7039,97.5062
3486.6682,97.524
3487.6323,97.5521
3488.5967,97.582
3489.5608,97.6044
3490.5251,97.6141
3491.4893,97.6131
3492.4536,97.6094
3493.4177,97.6133
3494.3821,97.631
3495.3462,97.6605
3496.3105,97.6921
3497.2747,97.7145
3498.2390,97.7226
3499.2031,97.721
3500.1675,97.7223
3501.1316,97.738
3502.0959,97.7687
3503.0601,97.8023
3504.0244,97.8229
3504.9885,97.8226
3505.9529,97.806
3506.9170,97.787
3507.8813,97.7822
3508.8455,97.8016
3509.8098,97.8421
3510.7739,97.891
3511.7383,97.9347
3512.7024,97.9665
3513.6667,97.9869
3514.6309,97.9999
3515.5952,98.0083
3516.5593,98.0125
3517.5237,98.0118
3518.4878,98.0076
3519.4521,98.0052
3520.4163,98.0114
3521.3806,98.0309
3522.3447,98.0631
3523.3091,98.1028
3524.2732,98.145
3525.2375,98.1872
3526.2017,98.2283
3527.1660,98.2649
3528.1301,98.2897
3529.0945,98.296
3530.0586,98.2831
3531.0229,98.2582
3531.9871,98.2335
3532.9514,98.2218
3533.9155,98.2319
3534.8799,98.2631
3535.8440,98.3044
3536.8083,98.3398
3537.7725,98.357
3538.7368,98.3531
3539.7009,98.3341
3540.6653,98.3121
3541.6294,98.3036
3542.5938,98.325
3543.5579,98.3825
3544.5222,98.4623
3545.4863,98.5349
3546.4507,98.574
3547.4148,98.5725
3548.3792,98.5406
3549.3433,98.4979
3550.3076,98.4673
3551.2717,98.4679
3552.2361,98.5048
3553.2002,98.5661
3554.1646,98.6309
3555.1287,98.6824
3556.0930,98.7158
3557.0571,98.7368
3558.0215,98.7537
3558.9856,98.7658
3559.9500,98.7598
3560.9141,98.7185
3561.8784,98.6384
3562.8425,98.5437
3563.8069,98.4891
3564.7710,98.5353
3565.7354,98.6908
3566.6995,98.875
3567.6638,98.986
3568.6279,98.999
3569.5923,98.9481
3570.5564,98.8663
3571.5208,98.7758
3572.4849,98.7003
3573.4492,98.6639
3574.4133,98.6796
3575.3777,98.7416
3576.3418,98.8303
3577.3062,98.9233
3578.2703,99.0011
3579.2346,99.0463
3580.1987,99.0431
3581.1631,98.9825
3582.1272,98.8706
3583.0916,98.738
3584.0557,98.6422
3585.0200,98.6497
3585.9841,98.782
3586.9485,98.9695
3587.9126,99.1018
3588.8770,99.1324
3589.8411,99.0878
3590.8054,99.011
3591.7695,98.9393
3592.7339,98.9034
3593.6980,98.9159
3594.6624,98.9611
3595.6265,99.0095
3596.5908,99.0465
3597.5549,99.0809
3598.5193,99.1289
3599.4834,99.1934
3600.4478,99.2555
3601.4119,99.2876
3602.3762,99.2734
3603.3403,99.2187
3604.3047,99.1489
3605.2688,99.1
3606.2332,99.098
3607.1973,99.1393
3608.1616,99.193
3609.1257,99.2323
3610.0901,99.256
3611.0542,99.2751
3612.0186,99.2914
3612.9829,99.2914
3613.9470,99.2604
3614.9114,99.2023
3615.8755,99.1487
3616.8398,99.1482
3617.8040,99.2332
3618.7683,99.3825
3619.7324,99.5284
3620.6968,99.6107
3621.6609,99.6054
3622.6252,99.5048
3623.5894,99.3123
3624.5537,99.0661
3625.5178,98.8634
3626.4822,98.8415
3627.4463,99.0714
3628.4106,99.4262
3629.3748,99.6811
3630.3391,99.7662
3631.3032,99.7493
3632.2676,99.6915
3633.2317,99.6218
3634.1960,99.5615
3635.1602,99.5303
3636.1245,99.5392
3637.0886,99.5869
3638.0530,99.6634
3639.0171,99.7526
3639.9814,99.8315
3640.9456,99.8698
3641.9099,99.836
3642.8740,99.7125
3643.8384,99.5156
3644.8025,99.3189
3645.7668,99.2729
3646.7310,99.5693
3647.6953,100.237
3648.6594,100.881
3649.6238,101.033
3650.5879,100.774
3651.5522,100.412
3652.5164,100.09
3653.4807,99.8403
3654.4448,99.6946
3655.4092,99.6864
3656.3733,99.8073
3657.3376,99.9948
3658.3018,100.177
3659.2661,100.313
3660.2302,100.4
3661.1946,100.448
3662.1587,100.458
3663.1230,100.417
3664.0872,100.307
3665.0515,100.132
3666.0156,99.9476
3666.9800,99.8474
3667.9441,99.909
3668.9084,100.095
3669.8726,100.24
3670.8369,100.214
3671.8010,100.046
3672.7654,99.8737
3673.7295,99.8509
3674.6938,100.046
3675.6580,100.355
3676.6223,100.597
3677.5864,100.701
3678.5508,100.703
3679.5149,100.641
3680.4792,100.536
3681.4434,100.398
3682.4077,100.224
3683.3718,100.01
3684.3362,99.7668
3685.3003,99.5483
3686.2646,99.4628
3687.2288,99.6309
3688.1931,100.061
3689.1572,100.551
3690.1216,100.845
3691.0857,100.891
3692.0500,100.784
3693.0142,100.611
3693.9785,100.413
3694.9426,100.207
3695.9070,100.005
3696.8711,99.8259
3697.8354,99.6987
3698.7996,99.6638
3699.7639,99.751
3700.7280,99.9461
3701.6924,100.174
3702.6565,100.334
3703.6208,100.361
3704.5850,100.246
3705.5493,100.023
3706.5134,99.7542
3707.4778,99.5399
3708.4419,99.4998
3709.4063,99.707
3710.3704,100.082
3711.3347,100.413
3712.2988,100.566
3713.2632,100.567
3714.2273,100.484
3715.1917,100.353
3716.1558,100.196
3717.1201,100.048
3718.0842,99.9529
3719.0486,99.9455
3720.0127,100.034
3720.9771,100.199
3721.9412,100.408
3722.9055,100.629
3723.8696,100.83
3724.8340,100.97
3725.7981,101.013
3726.7625,100.943
3727.7266,100.766
3728.6909,100.508
3729.6550,100.22
3730.6194,99.9886
3731.5835,99.9389
3732.5479,100.197
3733.5120,100.782
3734.4763,101.481
3735.4404,101.952
3736.4048,102.048
3737.3689,101.865
3738.3333,101.526
3739.2974,101.084
3740.2617,100.584
3741.2258,100.117
3742.1902,99.8253
3743.1543,99.813
3744.1187,100.019
3745.0828,100.247
3746.0471,100.362
3747.0112,100.377
3747.9756,100.395
3748.9397,100.524
3749.9041,100.751
3750.8682,100.892
3751.8325,100.813
3752.7966,100.58
3753.7610,100.305
3754.7251,100.038
3755.6895,99.815
3756.6536,99.6872
3757.6179,99.6893
3758.5820,99.7928
3759.5464,99.9152
3760.5105,99.983
3761.4749,99.9717
3762.4390,99.8976
3763.4033,99.7969
3764.3674,99.7094
3765.3318,99.664
3766.2959,99.6721
3767.2603,99.7291
3768.2244,99.8198
3769.1887,99.9206
3770.1528,100.002
3771.1172,100.035
3772.0813,100.006
3773.0457,99.9126
3774.0098,99.7687
3774.9741,99.6119
3775.9382,99.5001
3776.9026,99.49
3777.8667,99.5949
3778.8311,99.7637
3779.7952,99.9165
3780.7595,100.003
3781.7236,100.022
3782.6880,99.996
3783.6521,99.9535
3784.6165,99.912
3785.5806,99.8794
3786.5449,99.856
3787.5090,99.8385
3788.4734,99.8193
3789.4375,99.788
3790.4019,99.7385
3791.3660,99.6781
3792.3303,99.6307
3793.2944,99.6256
3794.2588,99.6759
3795.2229,99.7606
3796.1873,99.8347
3797.1514,99.8662
3798.1157,99.8649
3799.0798,99.8714
3800.0442,99.905
3801.0083,99.9248
3801.9727,99.8678
3802.9368,99.7227
3803.9011,99.5404
3804.8652,99.3998
3805.8296,99.3741
3806.7937,99.4875
3807.7581,99.6857
3808.7222,99.8675
3809.6865,99.9494
3810.6506,99.9004
3811.6150,99.7499
3812.5791,99.5803
3813.5435,99.4909
3814.5076,99.5284
3815.4719,99.6397
3816.4360,99.723
3817.4004,99.7307
3818.3645,99.6983
3819.3289,99.6872
3820.2930,99.717
3821.2573,99.7545
3822.2214,99.7682
3823.1858,99.7599
3824.1499,99.7447
3825.1143,99.7364
3826.0784,99.747
3827.0427,99.7835
3828.0068,99.8404
3828.9712,99.9002
3829.9353,99.9403
3830.8997,99.9403
3831.8638,99.8849
3832.8281,99.7694
3833.7922,99.6077
3834.7566,99.4398
3835.7207,99.3252
3836.6851,99.3159
3837.6492,99.4187
3838.6135,99.589
3839.5776,99.7703
3840.5420,99.9332
3841.5061,100.074
3842.4705,100.193
3843.4346,100.283
3844.3989,100.322
3845.3630,100.28
3846.3274,100.125
3847.2915,99.8353
3848.2559,99.4192
3849.2200,98.9506
3850.1843,98.6019
3851.1484,98.6294
3852.1128,99.1758
3853.0769,99.9421
3854.0413,100.418
3855.0054,100.517
3855.9697,100.428
3856.9338,100.249
3857.8982,100.003
3858.8623,99.722
3859.8267,99.4755
3860.7908,99.3536
3861.7551,99.4123
3862.7192,99.6137
3863.6836,99.831
3864.6477,99.9418
3865.6121,99.9099
3866.5762,99.7818
3867.5405,99.6422
3868.5046,99.5722
3869.4690,99.6126
3870.4331,99.7415
3871.3975,99.8916
3872.3616,99.9971
3873.3259,100.025
3874.2900,99.9706
3875.2544,99.8508
3876.2185,99.6985
3877.1829,99.5642
3878.1470,99.5036
3879.1113,99.5485
3880.0754,99.6789
3881.0398,99.8293
3882.0039,99.9351
3882.9683,99.9696
3883.9324,99.9409
3884.8967,99.8671
3885.8608,99.7621
3886.8252,99.6389
3887.7893,99.5204
3888.7537,99.4497
3889.7178,99.482
3890.6821,99.6435
3891.6462,99.8827
3892.6106,100.087
3893.5747,100.168
3894.5391,100.103
3895.5032,99.9254
3896.4675,99.7038
3897.4316,99.5176
3898.3960,99.427
3899.3601,99.4449
3900.3245,99.5397
3901.2886,99.6706
3902.2529,99.8095
3903.2170,99.9346
3904.1814,100.025
3905.1455,100.069
3906.1099,100.07
3907.0740,100.037
3908.0383,99.9814
3909.0024,99.9183
3909.9668,99.8599
3910.9309,99.81
3911.8953,99.7653
3912.8594,99.7247
3913.8237,99.7006
3914.7878,99.7172
3915.7522,99.7926
3916.7163,99.9144
3917.6807,100.036
3918.6448,100.107
3919.6091,100.104
3920.5732,100.037
3921.5376,99.9417
3922.5017,99.8571
3923.4661,99.8102
3924.4302,99.801
3925.3945,99.8072
3926.3586,99.8038
3927.3230,99.7825
3928.2871,99.758
3929.2515,99.7607
3930.2156,99.816
3931.1799,99.9218
3932.1440,100.045
3933.1084,100.142
3934.0725,100.187
3935.0369,100.17
3936.0010,100.097
3936.9653,99.9849
3937.9294,99.8567
3938.8938,99.7438
3939.8579,99.6778
3940.8223,99.6777
3941.7864,99.7377
3942.7507,99.8263
3943.7148,99.9039
3944.6792,99.9453
3945.6433,99.9504
3946.6077,99.9399
3947.5718,99.9396
3948.5361,99.9625
3949.5002,99.9997
3950.4646,100.028
3951.4287,100.027
3952.3931,99.9931
3953.3572,99.9374
3954.3215,99.8806
3955.2856,99.8422
3956.2500,99.8327
3957.2141,99.8529
3958.1785,99.8968
3959.1426,99.9562
3960.1069,100.021
3961.0710,100.079
3962.0354,100.116
3962.9995,100.122
3963.9639,100.093
3964.9280,100.04
3965.8923,99.978
3966.8564,99.9252
3967.8208,99.8934
3968.7849,99.8855
3969.7493,99.8974
3970.7134,99.9222
3971.6777,99.9544
3972.6418,99.9906
3973.6062,100.027
3974.5703,100.058
3975.5347,100.077
3976.4988,100.077
3977.4631,100.06
3978.4272,100.032
3979.3916,100.005
3980.3557,99.9876
3981.3201,99.9855
3982.2842,99.9953
3983.2485,100.007
3984.2126,100.01
3985.1770,99.9999
3986.1411,99.9794
3987.1055,99.9595
3988.0696,99.9521
3989.0339,99.9634
3989.9980,99.9904
3990.9624,100.022
3991.9265,100.048
3992.8909,100.062
3993.8550,100.065
3994.8193,100.065
3995.7834,100.065
3996.7478,100.065
3997.7119,100.062
3998.6763,100.051
3999.6404,100.033
4000.6047,100.164

##### Extended Information
[Comments]
Sample name
Comment
User
Division
Company,HANKYONG

[Detailed Information]
Creation date,4/24/2024 2:40 PM

Data array type,Linear data array
Horizontal axis,Wavenumber [cm-1]
Vertical axis,%T
Start,649.893 cm-1
End,4000.6 cm-1
Data interval,0.964233 cm-1
Data points,3476    

[Measurement Information]
Model Name,FT/IR-4700typeA
Serial Number,D056761788

Accessory,ATR PRO ONE
Accessory S/N,C174761809
Incident angle,45 deg

Measurement Date,4/24/2024 2:39 PM

Light Source,Standard
Detector,TGS
Accumulation,32
Resolution,4 cm-1
Zero Filling,On
Apodization,Cosine
Gain,Auto (4)
Aperture,Auto (7.1 mm)
Scanning Speed,Auto (2 mm/sec)
Filter,Auto (30000 Hz)

