TITLE,
DATA TYPE,INFRARED SPECTRUM
ORIGIN,JASCO
OWNER,
DATE,24/04/24
TIME,14:08:34
SPECTROMETER/DATA SYSTEM,
LOCALE,1033
RESOLUTION,
DELTAX,0.964233
XUNITS,1/CM
YUNITS,TRANSMITTANCE
FIRSTX,  649.8934
LASTX, 4000.6047
NPOINTS,    3476
FIRSTY,    99.95287
MAXY,   101.42229
MINY,    78.05835
XYDATA
649.8934,99.9529
650.8576,99.9155
651.8218,99.9121
652.7861,99.9347
653.7503,99.9785
654.7145,99.9655
655.6788,99.9382
656.6430,99.8845
657.6072,99.7927
658.5715,99.6813
659.5357,99.6013
660.4999,99.6085
661.4642,99.7173
662.4284,99.8751
663.3926,99.9809
664.3569,99.9191
665.3211,99.5765
666.2853,98.8725
667.2496,97.8824
668.2138,97.0158
669.1780,96.7866
670.1423,97.1943
671.1065,97.8292
672.0707,98.3833
673.0350,98.7516
673.9992,98.9342
674.9634,98.9736
675.9277,98.9317
676.8919,98.8731
677.8561,98.8449
678.8204,98.867
679.7846,98.9381
680.7488,99.0435
681.7131,99.1607
682.6773,99.2655
683.6415,99.3414
684.6058,99.387
685.5700,99.4154
686.5342,99.4432
687.4985,99.4772
688.4627,99.5083
689.4269,99.5151
690.3912,99.4779
691.3554,99.3996
692.3196,99.323
693.2839,99.3211
694.2481,99.4393
695.2123,99.6523
696.1766,99.897
697.1408,100.121
698.1050,100.296
699.0693,100.412
700.0335,100.471
700.9977,100.487
701.9620,100.476
702.9262,100.456
703.8904,100.442
704.8547,100.445
705.8189,100.466
706.7831,100.5
707.7474,100.535
708.7116,100.56
709.6758,100.566
710.6401,100.559
711.6043,100.548
712.5685,100.541
713.5328,100.534
714.4970,100.511
715.4612,100.586
716.4255,100.458
717.3897,100.283
718.3539,100.102
719.3182,99.9689
720.2824,99.9315
721.2466,100
722.2109,100.16
723.1751,100.353
724.1393,100.508
725.1036,100.597
726.0678,100.62
727.0320,100.597
727.9963,100.556
728.9605,100.517
729.9247,100.492
730.8890,100.482
731.8532,100.486
732.8174,100.502
733.7817,100.528
734.7459,100.557
735.7101,100.581
736.6744,100.588
737.6386,100.57
738.6028,100.528
739.5671,100.47
740.5313,100.415
741.4955,100.379
742.4598,100.371
743.4240,100.391
744.3882,100.427
745.3525,100.462
746.3167,100.483
747.2809,100.485
748.2452,100.468
749.2094,100.44
750.1736,100.412
751.1379,100.391
752.1021,100.381
753.0663,100.384
754.0306,100.396
754.9948,100.411
755.9590,100.423
756.9233,100.425
757.8875,100.415
758.8517,100.393
759.8160,100.36
760.7802,100.323
761.7444,100.287
762.7087,100.255
763.6729,100.226
764.6371,100.199
765.6014,100.17
766.5656,100.142
767.5298,100.118
768.4941,100.102
769.4583,100.094
770.4225,100.093
771.3868,100.091
772.3510,100.084
773.3152,100.069
774.2795,100.047
775.2437,100.019
776.2079,99.9878
777.1722,99.9532
778.1364,99.9168
779.1006,99.8813
780.0649,99.8495
781.0291,99.8224
781.9933,99.7991
782.9576,99.7779
783.9218,99.7587
784.8860,99.7445
785.8503,99.7385
786.8145,99.7407
787.7787,99.753
788.7430,99.8045
789.7072,99.8377
790.6714,99.848
791.6357,99.8396
792.5999,99.823
793.5641,99.8103
794.5284,99.8095
795.4926,99.8216
796.4568,99.8405
797.4211,99.8567
798.3853,99.8616
799.3495,99.8518
800.3138,99.8309
801.2780,99.8078
802.2422,99.7926
803.2065,99.7916
804.1707,99.8044
805.1349,99.8259
806.0992,99.8501
807.0634,99.8742
808.0276,99.8997
808.9919,99.9294
809.9561,99.9628
810.9203,99.9946
811.8846,100.017
812.8488,100.026
813.8130,100.022
814.7773,100.015
815.7415,100.015
816.7057,100.027
817.6700,100.05
818.6342,100.077
819.5984,100.101
820.5627,100.117
821.5269,100.125
822.4911,100.131
823.4554,100.139
824.4196,100.152
825.3839,100.168
826.3481,100.189
827.3123,100.209
828.2766,100.228
829.2408,100.243
830.2050,100.25
831.1693,100.25
832.1335,100.243
833.0977,100.234
834.0620,100.229
835.0262,100.232
835.9904,100.245
836.9547,100.269
837.9189,100.298
838.8831,100.329
839.8474,100.358
840.8116,100.382
841.7758,100.399
842.7401,100.409
843.7043,100.412
844.6685,100.408
845.6328,100.398
846.5970,100.384
847.5612,100.366
848.5255,100.343
849.4897,100.315
850.4539,100.279
851.4182,100.237
852.3824,100.19
853.3466,100.137
854.3109,100.08
855.2751,100.014
856.2393,99.938
857.2036,99.8502
858.1678,99.7523
859.1320,99.6489
860.0963,99.5449
861.0605,99.4445
862.0247,99.3499
862.9890,99.2616
863.9532,99.1795
864.9174,99.1034
865.8817,99.0323
866.8459,98.9646
867.8101,98.899
868.7744,98.8375
869.7386,98.7859
870.7028,98.7512
871.6671,98.7357
872.6313,98.7304
873.5955,98.7147
874.5598,98.6645
875.5240,98.5661
876.4882,98.4272
877.4525,98.2771
878.4167,98.154
879.3809,98.0869
880.3452,98.0819
881.3094,98.122
882.2736,98.1772
883.2379,98.2191
884.2021,98.2296
885.1663,98.2011
886.1306,98.133
887.0948,98.0288
888.0590,97.8977
889.0233,97.7561
889.9875,97.6264
890.9517,97.5292
891.9160,97.4756
892.8802,97.4626
893.8444,97.4768
894.8087,97.5035
895.7729,97.5345
896.7371,97.5714
897.7014,97.6221
898.6656,97.6951
899.6298,97.7953
900.5941,97.9227
901.5583,98.0739
902.5225,98.2435
903.4868,98.4247
904.4510,98.6105
905.4152,98.7932
906.3795,98.9663
907.3437,99.1255
908.3079,99.2687
909.2722,99.3968
910.2364,99.5123
911.2006,99.6186
912.1649,99.7185
913.1291,99.8126
914.0933,99.899
915.0576,99.9744
916.0218,100.036
916.9860,100.084
917.9503,100.108
918.9145,100.105
919.8787,100.097
920.8430,100.084
921.8072,100.065
922.7714,100.043
923.7357,100.02
924.6999,99.9992
925.6641,99.9824
926.6284,99.9667
927.5926,99.9469
928.5568,99.9185
929.5211,99.8805
930.4853,99.835
931.4495,99.7855
932.4138,99.7342
933.3780,99.681
934.3422,99.6243
935.3065,99.5634
936.2707,99.4986
937.2349,99.4306
938.1992,99.3586
939.1634,99.2796
940.1276,99.19
941.0919,99.0882
942.0561,98.9766
943.0203,98.861
943.9846,98.7469
944.9488,98.6362
945.9130,98.5252
946.8773,98.4064
947.8415,98.2722
948.8057,98.1199
949.7700,97.9525
950.7342,97.7779
951.6984,97.6046
952.6627,97.4382
953.6269,97.28
954.5911,97.1277
955.5554,96.9773
956.5196,96.8259
957.4838,96.6718
958.4481,96.5152
959.4123,96.3562
960.3765,96.1952
961.3408,96.0322
962.3050,95.8673
963.2692,95.7012
964.2335,95.5349
965.1977,95.3697
966.1619,95.2063
967.1262,95.0441
968.0904,94.8808
969.0546,94.7128
970.0189,94.5368
970.9831,94.3508
971.9473,94.1546
972.9116,93.9504
973.8758,93.7404
974.8400,93.5264
975.8043,93.3086
976.7685,93.0858
977.7327,92.857
978.6970,92.6229
979.6612,92.3867
980.6254,92.154
981.5897,91.9307
982.5539,91.7211
983.5181,91.5259
984.4824,91.3428
985.4466,91.1678
986.4108,90.9984
987.3751,90.8346
988.3393,90.6795
989.3035,90.5371
990.2678,90.4096
991.2320,90.2955
992.1962,90.1892
993.1605,90.0833
994.1247,89.9706
995.0889,89.8474
996.0532,89.7136
997.0174,89.5722
997.9816,89.4254
998.9459,89.2728
999.9101,89.1106
1000.8743,88.9337
1001.8386,88.7382
1002.8028,88.524
1003.7670,88.2937
1004.7313,88.0506
1005.6955,87.7967
1006.6597,87.5332
1007.6240,87.2606
1008.5882,86.9807
1009.5524,86.6958
1010.5167,86.4089
1011.4809,86.1239
1012.4451,85.8458
1013.4094,85.5814
1014.3736,85.3363
1015.3378,85.1129
1016.3021,84.9095
1017.2663,84.7241
1018.2305,84.5574
1019.1948,84.4116
1020.1590,84.2817
1021.1232,84.1457
1022.0875,83.9651
1023.0517,83.7017
1024.0160,83.3447
1024.9802,82.9313
1025.9445,82.5407
1026.9087,82.2597
1027.8729,82.1377
1028.8372,82.1569
1029.8014,82.2376
1030.7656,82.2755
1031.7299,82.1885
1032.6941,81.9483
1033.6583,81.5815
1034.6226,81.1481
1035.5868,80.7122
1036.5510,80.321
1037.5153,79.9966
1038.4795,79.7383
1039.4437,79.5296
1040.4080,79.3471
1041.3722,79.1697
1042.3364,78.9863
1043.3007,78.798
1044.2649,78.615
1045.2291,78.4487
1046.1934,78.3063
1047.1576,78.1909
1048.1218,78.1059
1049.0861,78.0588
1050.0503,78.0583
1051.0145,78.1065
1051.9788,78.191
1052.9430,78.2891
1053.9072,78.3821
1054.8715,78.4747
1055.8357,78.6031
1056.7999,78.8208
1057.7642,79.165
1058.7284,79.62
1059.6926,80.1028
1060.6569,80.4887
1061.6211,80.6679
1062.5853,80.6079
1063.5496,80.3824
1064.5138,80.1461
1065.4780,80.0642
1066.4423,80.2326
1067.4065,80.6334
1068.3707,81.1495
1069.3350,81.6286
1070.2992,81.957
1071.2634,82.1034
1072.2277,82.1154
1073.1919,82.0794
1074.1561,82.0742
1075.1204,82.1441
1076.0846,82.2992
1077.0488,82.5313
1078.0131,82.8302
1078.9773,83.1895
1079.9415,83.6034
1080.9058,84.0619
1081.8700,84.5488
1082.8342,85.0452
1083.7985,85.534
1084.7627,86.0052
1085.7269,86.4592
1086.6912,86.907
1087.6554,87.3654
1088.6196,87.8478
1089.5839,88.3541
1090.5481,88.8651
1091.5123,89.3474
1092.4766,89.7663
1093.4408,90.1007
1094.4050,90.35
1095.3693,90.5314
1096.3335,90.6688
1097.2977,90.7823
1098.2620,90.8841
1099.2262,90.9802
1100.1904,91.0754
1101.1547,91.1755
1102.1189,91.2873
1103.0831,91.4159
1104.0474,91.5639
1105.0116,91.7314
1105.9758,91.9168
1106.9401,92.1174
1107.9043,92.3289
1108.8685,92.5458
1109.8328,92.7624
1110.7970,92.975
1111.7612,93.183
1112.7255,93.3882
1113.6897,93.5927
1114.6539,93.7975
1115.6182,94.0008
1116.5824,94.1993
1117.5466,94.389
1118.5109,94.5664
1119.4751,94.7298
1120.4393,94.8803
1121.4036,95.022
1122.3678,95.1614
1123.3320,95.3062
1124.2963,95.4629
1125.2605,95.636
1126.2247,95.8272
1127.1890,96.0356
1128.1532,96.2584
1129.1174,96.4905
1130.0817,96.7253
1131.0459,96.9552
1132.0101,97.1738
1132.9744,97.3774
1133.9386,97.5652
1134.9028,97.738
1135.8671,97.896
1136.8313,98.0373
1137.7955,98.1588
1138.7598,98.2574
1139.7240,98.3327
1140.6882,98.3859
1141.6525,98.4189
1142.6167,98.4323
1143.5809,98.4254
1144.5452,98.3981
1145.5094,98.3527
1146.4736,98.2947
1147.4379,98.2313
1148.4021,98.1686
1149.3663,98.1096
1150.3306,98.0543
1151.2948,98.0016
1152.2590,97.9513
1153.2233,97.9052
1154.1875,97.8665
1155.1517,97.8392
1156.1160,97.827
1157.0802,97.8334
1158.0444,97.8611
1159.0087,97.9114
1159.9729,97.9831
1160.9371,98.0727
1161.9014,98.1752
1162.8656,98.2862
1163.8298,98.4037
1164.7941,98.5286
1165.7583,98.6628
1166.7225,98.8068
1167.6868,98.9582
1168.6510,99.111
1169.6152,99.2581
1170.5795,99.3938
1171.5437,99.5151
1172.5079,99.6219
1173.4722,99.7157
1174.4364,99.797
1175.4006,99.8655
1176.3649,99.92
1177.3291,99.9599
1178.2933,99.9854
1179.2576,99.9972
1180.2218,99.995
1181.1860,99.9775
1182.1503,99.9436
1183.1145,99.8944
1184.0787,99.861
1185.0430,99.8235
1186.0072,99.787
1186.9714,99.7536
1187.9357,99.7205
1188.8999,99.6826
1189.8641,99.6342
1190.8284,99.5716
1191.7926,99.4934
1192.7568,99.4
1193.7211,99.2936
1194.6853,99.1779
1195.6495,99.058
1196.6138,98.9396
1197.5780,98.8264
1198.5422,98.7188
1199.5065,98.7
1200.4707,98.5801
1201.4349,98.4504
1202.3992,98.3081
1203.3634,98.1534
1204.3276,97.989
1205.2919,97.819
1206.2561,97.6475
1207.2203,97.4765
1208.1846,97.3057
1209.1488,97.132
1210.1130,96.9511
1211.0773,96.7601
1212.0415,96.559
1213.0057,96.351
1213.9700,96.1398
1214.9342,95.9285
1215.8984,95.7178
1216.8627,95.5075
1217.8269,95.2981
1218.7911,95.0903
1219.7554,94.8855
1220.7196,94.6853
1221.6838,94.4914
1222.6481,94.3065
1223.6123,94.1343
1224.5765,93.9801
1225.5408,93.8497
1226.5050,93.7482
1227.4692,93.6785
1228.4335,93.6405
1229.3977,93.6315
1230.3619,93.6488
1231.3262,93.692
1232.2904,93.7645
1233.2546,93.8691
1234.2189,94.0008
1235.1831,94.139
1236.1473,94.2486
1237.1116,94.2935
1238.0758,94.2572
1239.0400,94.1576
1240.0043,94.0454
1240.9685,93.9805
1241.9327,94.0005
1242.8970,94.0997
1243.8612,94.2322
1244.8254,94.3384
1245.7897,94.3788
1246.7539,94.3534
1247.7181,94.297
1248.6824,94.2558
1249.6466,94.2631
1250.6108,94.327
1251.5751,94.4341
1252.5393,94.5631
1253.5035,94.6968
1254.4678,94.8269
1255.4320,94.9528
1256.3962,95.078
1257.3605,95.2077
1258.3247,95.3482
1259.2889,95.5048
1260.2532,95.6798
1261.2174,95.8706
1262.1816,96.0701
1263.1459,96.2704
1264.1101,96.466
1265.0743,96.6552
1266.0386,96.8394
1267.0028,97.0211
1267.9670,97.203
1268.9313,97.3869
1269.8955,97.5738
1270.8597,97.7631
1271.8240,97.9524
1272.7882,98.1372
1273.7524,98.3126
1274.7167,98.4751
1275.6809,98.6236
1276.6451,98.7594
1277.6094,98.8856
1278.5736,99.0057
1279.5378,99.1223
1280.5021,99.2363
1281.4663,99.3462
1282.4305,99.4487
1283.3948,99.54
1284.3590,99.6175
1285.3232,99.6823
1286.2875,99.7387
1287.2517,99.7935
1288.2159,99.852
1289.1802,99.9147
1290.1444,99.9771
1291.1086,100.031
1292.0729,100.07
1293.0371,100.092
1294.0013,100.091
1294.9656,100.069
1295.9298,100.045
1296.8940,100.023
1297.8583,100.001
1298.8225,99.9746
1299.7867,99.9407
1300.7510,99.8966
1301.7152,99.8415
1302.6794,99.7773
1303.6437,99.7074
1304.6079,99.6351
1305.5721,99.5627
1306.5364,99.4891
1307.5006,99.4101
1308.4648,99.3197
1309.4291,99.214
1310.3933,99.0948
1311.3575,98.9707
1312.3218,98.8535
1313.2860,98.752
1314.2502,98.6677
1315.2145,98.5959
1316.1787,98.5315
1317.1429,98.4753
1318.1072,98.4354
1319.0714,98.4205
1320.0356,98.4326
1320.9999,98.463
1321.9641,98.4976
1322.9283,98.5242
1323.8926,98.5378
1324.8568,98.5404
1325.8210,98.5372
1326.7853,98.533
1327.7495,98.5305
1328.7137,98.5308
1329.6780,98.5353
1330.6422,98.5448
1331.6064,98.5566
1332.5707,98.5624
1333.5349,98.5469
1334.4991,98.4933
1335.4634,98.3918
1336.4276,98.2513
1337.3918,98.11
1338.3561,98.0323
1339.3203,98.0738
1340.2845,98.2347
1341.2488,98.4557
1342.2130,98.664
1343.1772,98.8137
1344.1415,98.8928
1345.1057,98.911
1346.0699,98.8888
1347.0342,98.8491
1347.9984,98.809
1348.9626,98.7746
1349.9269,98.7402
1350.8911,98.6944
1351.8553,98.6281
1352.8196,98.5397
1353.7838,98.4356
1354.7480,98.3261
1355.7123,98.2183
1356.6765,98.1102
1357.6407,97.9909
1358.6050,97.8451
1359.5692,97.6618
1360.5334,97.4493
1361.4977,97.2451
1362.4619,97.0967
1363.4261,97.0167
1364.3904,96.9702
1365.3546,96.9101
1366.3188,96.8107
1367.2831,96.6714
1368.2473,96.5061
1369.2115,96.3303
1370.1758,96.1513
1371.1400,95.9662
1372.1042,95.7716
1373.0685,95.5798
1374.0327,95.4227
1374.9969,95.3301
1375.9612,95.3021
1376.9254,95.3131
1377.8896,95.3392
1378.8539,95.3724
1379.8181,95.4157
1380.7823,95.4718
1381.7466,95.5378
1382.7108,95.6092
1383.6750,95.6874
1384.6393,95.7838
1385.6035,95.915
1386.5677,96.0839
1387.5320,96.249
1388.4962,96.3279
1389.4604,96.2577
1390.4247,96.0395
1391.3889,95.7259
1392.3531,95.3951
1393.3174,95.1404
1394.2816,95.0563
1395.2458,95.1888
1396.2101,95.4854
1397.1743,95.8141
1398.1385,96.0494
1399.1028,96.1362
1400.0670,96.0884
1401.0313,95.9527
1401.9955,95.7765
1402.9597,95.5965
1403.9240,95.4409
1404.8882,95.3319
1405.8524,95.2776
1406.8167,95.2675
1407.7809,95.2841
1408.7451,95.3203
1409.7094,95.3808
1410.6736,95.4696
1411.6378,95.5791
1412.6021,95.6912
1413.5663,95.7913
1414.5305,95.8794
1415.4948,95.9659
1416.4590,96.0664
1417.4232,96.206
1418.3875,96.4038
1419.3517,96.6238
1420.3159,96.7854
1421.2802,96.8563
1422.2444,96.8819
1423.2086,96.928
1424.1729,97.0283
1425.1371,97.1734
1426.1013,97.3308
1427.0656,97.4708
1428.0298,97.5816
1428.9940,97.6694
1429.9583,97.749
1430.9225,97.8331
1431.8867,97.9313
1432.8510,98.052
1433.8152,98.1973
1434.7794,98.3582
1435.7437,98.5238
1436.7079,98.6793
1437.6721,98.7857
1438.6364,98.8045
1439.6006,98.7498
1440.5648,98.6731
1441.5291,98.6119
1442.4933,98.5678
1443.4575,98.5177
1444.4218,98.4371
1445.3860,98.3171
1446.3502,98.1674
1447.3145,98.008
1448.2787,97.8542
1449.2429,97.7085
1450.2072,97.5721
1451.1714,97.4632
1452.1356,97.4116
1453.0999,97.4277
1454.0641,97.4706
1455.0283,97.4594
1455.9926,97.3923
1456.9568,97.4631
1457.9210,97.7651
1458.8853,98.0452
1459.8495,98.1423
1460.8137,98.1392
1461.7780,98.1508
1462.7422,98.2182
1463.7064,98.3262
1464.6707,98.4488
1465.6349,98.5629
1466.5991,98.6501
1467.5634,98.7182
1468.5276,98.7925
1469.4918,98.8718
1470.4561,98.9086
1471.4203,98.8622
1472.3845,98.8014
1473.3488,98.8846
1474.3130,99.14
1475.2772,99.4277
1476.2415,99.6379
1477.2057,99.76
1478.1699,99.8179
1479.1342,99.8379
1480.0984,99.8535
1481.0626,99.8717
1482.0269,99.8867
1482.9911,99.8828
1483.9553,99.8417
1484.9196,99.7441
1485.8838,99.5677
1486.8480,99.3027
1487.8123,99.0063
1488.7765,98.8315
1489.7407,98.8851
1490.7050,99.0702
1491.6692,99.2226
1492.6334,99.284
1493.5977,99.271
1494.5619,99.1923
1495.5261,99.0353
1496.4904,98.8138
1497.4546,98.5974
1498.4188,98.4386
1499.3831,98.3167
1500.3473,98.2157
1501.3115,98.1777
1502.2758,98.2534
1503.2400,98.4288
1504.2042,98.5695
1505.1685,98.4291
1506.1327,97.8921
1507.0969,97.3836
1508.0612,97.3815
1509.0254,97.6447
1509.9896,97.8576
1510.9539,97.9967
1511.9181,98.1138
1512.8823,98.2169
1513.8466,98.2792
1514.8108,98.2844
1515.7750,98.2566
1516.7393,98.2457
1517.7035,98.2833
1518.6677,98.3597
1519.6320,98.4425
1520.5962,98.511
1521.5604,98.5655
1522.5247,98.613
1523.4889,98.6655
1524.4531,98.749
1525.4174,98.8842
1526.3816,99.0595
1527.3458,99.2339
1528.3101,99.3716
1529.2743,99.4643
1530.2385,99.5176
1531.2028,99.5315
1532.1670,99.5103
1533.1312,99.4821
1534.0955,99.4864
1535.0597,99.5488
1536.0239,99.6778
1536.9882,99.8397
1537.9524,99.9011
1538.9166,99.6399
1539.8809,99.0013
1540.8451,98.4445
1541.8093,98.4218
1542.7736,98.7196
1543.7378,99.0156
1544.7020,99.2206
1545.6663,99.3393
1546.6305,99.3822
1547.5947,99.3647
1548.5590,99.3395
1549.5232,99.3059
1550.4874,99.2776
1551.4517,99.2542
1552.4159,99.2366
1553.3801,99.2435
1554.3444,99.306
1555.3086,99.4327
1556.2728,99.5828
1557.2371,99.7308
1558.2013,100.015
1559.1655,100.458
1560.1298,100.628
1561.0940,100.347
1562.0582,99.87
1563.0225,99.452
1563.9867,99.2019
1564.9509,99.1139
1565.9152,99.1238
1566.8794,99.1551
1567.8436,99.1619
1568.8079,99.1462
1569.7721,99.1256
1570.7363,99.1001
1571.7006,99.0709
1572.6648,99.0499
1573.6290,99.0317
1574.5933,98.9869
1575.5575,98.9115
1576.5217,98.85
1577.4860,98.811
1578.4502,98.7464
1579.4144,98.6457
1580.3787,98.5449
1581.3429,98.4689
1582.3071,98.4111
1583.2714,98.3504
1584.2356,98.2721
1585.1998,98.1748
1586.1641,98.0654
1587.1283,97.9517
1588.0925,97.8397
1589.0568,97.7338
1590.0210,97.6377
1590.9852,97.5547
1591.9495,97.4887
1592.9137,97.4465
1593.8779,97.4377
1594.8422,97.4684
1595.8064,97.5327
1596.7706,97.6106
1597.7349,97.6771
1598.6991,97.7155
1599.6633,97.7243
1600.6276,97.717
1601.5918,97.7123
1602.5560,97.7213
1603.5203,97.7395
1604.4845,97.7531
1605.4487,97.7523
1606.4130,97.7405
1607.3772,97.7324
1608.3414,97.7434
1609.3057,97.7766
1610.2699,97.8218
1611.2341,97.8722
1612.1984,97.9341
1613.1626,98.0106
1614.1268,98.0818
1615.0911,98.12
1616.0553,98.1272
1617.0195,98.1183
1617.9838,98.0734
1618.9480,97.981
1619.9122,97.8781
1620.8765,97.8078
1621.8407,97.7828
1622.8049,97.7936
1623.7692,97.8269
1624.7334,97.8692
1625.6976,97.9088
1626.6619,97.9427
1627.6261,97.9713
1628.5903,97.9942
1629.5546,98.0185
1630.5188,98.0678
1631.4830,98.1658
1632.4473,98.2962
1633.4115,98.3772
1634.3757,98.3131
1635.3400,98.1363
1636.3042,98.0116
1637.2684,97.9804
1638.2327,97.9481
1639.1969,97.884
1640.1611,97.8303
1641.1254,97.8303
1642.0896,97.8936
1643.0538,97.9816
1644.0181,98.0048
1644.9823,97.8711
1645.9465,97.6101
1646.9108,97.4065
1647.8750,97.404
1648.8392,97.6067
1649.8035,97.9744
1650.7677,98.428
1651.7319,98.8164
1652.6962,99.0329
1653.6604,99.1233
1654.6246,99.0442
1655.5889,98.7415
1656.5531,98.3693
1657.5173,98.1037
1658.4816,98.0054
1659.4458,98.0327
1660.4100,98.1024
1661.3743,98.1573
1662.3385,98.1939
1663.3027,98.224
1664.2670,98.2468
1665.2312,98.263
1666.1954,98.2702
1667.1597,98.2457
1668.1239,98.1678
1669.0881,98.0674
1670.0524,98.0234
1671.0166,98.0764
1671.9808,98.2052
1672.9451,98.3779
1673.9093,98.5611
1674.8735,98.6976
1675.8378,98.7173
1676.8020,98.5892
1677.7662,98.3644
1678.7305,98.1531
1679.6947,98.0541
1680.6589,98.0976
1681.6232,98.2351
1682.5874,98.3933
1683.5516,98.551
1684.5159,98.6821
1685.4801,98.6796
1686.4443,98.516
1687.4086,98.2998
1688.3728,98.1511
1689.3370,98.1267
1690.3013,98.2222
1691.2655,98.3966
1692.2297,98.5904
1693.1940,98.7336
1694.1582,98.7592
1695.1224,98.6399
1696.0867,98.4374
1697.0509,98.3055
1698.0151,98.3879
1698.9794,98.6604
1699.9436,98.9118
1700.9078,98.9341
1701.8721,98.6992
1702.8363,98.3365
1703.8005,98.0075
1704.7648,97.817
1705.7290,97.7847
1706.6932,97.8523
1707.6575,97.9267
1708.6217,97.9428
1709.5859,97.894
1710.5502,97.8099
1711.5144,97.7185
1712.4786,97.6256
1713.4429,97.5137
1714.4071,97.3683
1715.3713,97.2373
1716.3356,97.2673
1717.2998,97.5402
1718.2640,97.8723
1719.2283,98.0296
1720.1925,97.9921
1721.1567,97.8777
1722.1210,97.7951
1723.0852,97.788
1724.0494,97.8403
1725.0137,97.9017
1725.9779,97.92
1726.9421,97.8721
1727.9064,97.7755
1728.8706,97.6764
1729.8348,97.6214
1730.7991,97.6344
1731.7633,97.716
1732.7275,97.8598
1733.6918,98.0328
1734.6560,98.1392
1735.6202,98.1056
1736.5845,97.9736
1737.5487,97.8391
1738.5129,97.7589
1739.4772,97.726
1740.4414,97.6976
1741.4056,97.6356
1742.3699,97.5313
1743.3341,97.4039
1744.2983,97.2826
1745.2626,97.1886
1746.2268,97.1323
1747.1910,97.13
1748.1553,97.2223
1749.1195,97.456
1750.0837,97.8095
1751.0480,98.1658
1752.0122,98.4105
1752.9764,98.5221
1753.9407,98.5502
1754.9049,98.5529
1755.8691,98.5659
1756.8334,98.6009
1757.7976,98.657
1758.7618,98.7313
1759.7261,98.8237
1760.6903,98.9348
1761.6545,99.0576
1762.6188,99.1735
1763.5830,99.2632
1764.5472,99.3223
1765.5115,99.3614
1766.4757,99.3906
1767.4399,99.4086
1768.4042,99.4036
1769.3684,99.369
1770.3326,99.3237
1771.2969,99.3169
1772.2611,99.3848
1773.2253,99.4932
1774.1896,99.5672
1775.1538,99.5762
1776.1180,99.5475
1777.0823,99.5212
1778.0465,99.5164
1779.0107,99.5323
1779.9750,99.5645
1780.9392,99.6139
1781.9034,99.6828
1782.8677,99.7654
1783.8319,99.8442
1784.7961,99.895
1785.7604,99.903
1786.7246,99.8748
1787.6888,99.833
1788.6531,99.7953
1789.6173,99.7584
1790.5815,99.711
1791.5458,99.6627
1792.5100,99.6367
1793.4742,99.6258
1794.4385,99.6021
1795.4027,99.5661
1796.3669,99.5438
1797.3312,99.5527
1798.2954,99.5887
1799.2596,99.6389
1800.2239,99.6967
1801.1881,99.7599
1802.1523,99.821
1803.1166,99.8682
1804.0808,99.8935
1805.0450,99.8944
1806.0093,99.8718
1806.9735,99.8284
1807.9377,99.7727
1808.9020,99.7229
1809.8662,99.705
1810.8304,99.7328
1811.7947,99.7965
1812.7589,99.8727
1813.7231,99.941
1814.6874,99.9927
1815.6516,100.027
1816.6158,100.045
1817.5801,100.049
1818.5443,100.04
1819.5085,100.023
1820.4728,100.003
1821.4370,99.9841
1822.4012,99.9673
1823.3655,99.95
1824.3297,99.9276
1825.2939,99.8945
1826.2582,99.8481
1827.2224,99.797
1828.1866,99.7644
1829.1509,99.7784
1830.1151,99.8455
1831.0793,99.9325
1832.0436,99.9935
1833.0078,100.01
1833.9720,99.9966
1834.9363,99.9743
1835.9005,99.9563
1836.8647,99.946
1837.8290,99.943
1838.7932,99.949
1839.7574,99.9686
1840.7217,100
1841.6859,100.027
1842.6501,100.027
1843.6144,99.9998
1844.5786,99.9677
1845.5428,99.9454
1846.5071,99.9338
1847.4713,99.9382
1848.4355,99.9688
1849.3998,100.025
1850.3640,100.092
1851.3282,100.147
1852.2925,100.177
1853.2567,100.183
1854.2209,100.172
1855.1852,100.154
1856.1494,100.133
1857.1136,100.111
1858.0779,100.093
1859.0421,100.086
1860.0063,100.089
1860.9706,100.096
1861.9348,100.091
1862.8990,100.058
1863.8633,99.9917
1864.8275,99.8932
1865.7917,99.774
1866.7560,99.6659
1867.7202,99.6238
1868.6844,99.6883
1869.6487,99.8332
1870.6129,99.983
1871.5771,100.085
1872.5414,100.138
1873.5056,100.161
1874.4698,100.173
1875.4341,100.181
1876.3983,100.185
1877.3625,100.186
1878.3268,100.184
1879.2910,100.179
1880.2552,100.17
1881.2195,100.155
1882.1837,100.135
1883.1479,100.11
1884.1122,100.083
1885.0764,100.059
1886.0406,100.039
1887.0049,100.025
1887.9691,100.018
1888.9333,100.019
1889.8976,100.024
1890.8618,100.022
1891.8260,100.008
1892.7903,99.9846
1893.7545,99.9638
1894.7188,99.9587
1895.6830,99.9758
1896.6472,100.01
1897.6115,100.048
1898.5757,100.076
1899.5399,100.087
1900.5042,100.084
1901.4684,100.075
1902.4326,100.062
1903.3969,100.045
1904.3611,100.018
1905.3253,99.9751
1906.2896,99.9197
1907.2538,99.8643
1908.2180,99.8279
1909.1823,99.8256
1910.1465,99.8569
1911.1107,99.9044
1912.0750,99.947
1913.0392,99.9739
1914.0034,99.986
1914.9677,99.9882
1915.9319,99.9835
1916.8961,99.9706
1917.8604,99.9438
1918.8246,99.8969
1919.7888,99.8324
1920.7531,99.7672
1921.7173,99.7265
1922.6815,99.73
1923.6458,99.7781
1924.6100,99.8507
1925.5742,99.9197
1926.5385,99.966
1927.5027,99.9859
1928.4669,99.9862
1929.4312,99.9766
1930.3954,99.9653
1931.3596,99.9569
1932.3239,99.954
1933.2881,99.9578
1934.2523,99.9677
1935.2166,99.9798
1936.1808,99.9868
1937.1450,99.9809
1938.1093,99.9566
1939.0735,99.9127
1940.0377,99.8537
1941.0020,99.7922
1941.9662,99.7469
1942.9304,99.7333
1943.8947,99.7532
1944.8589,99.7962
1945.8231,99.8496
1946.7874,99.9047
1947.7516,99.9555
1948.7158,99.9968
1949.6801,100.023
1950.6443,100.033
1951.6085,100.03
1952.5728,100.021
1953.5370,100.013
1954.5012,100.013
1955.4655,100.021
1956.4297,100.031
1957.3939,100.041
1958.3582,100.048
1959.3224,100.053
1960.2866,100.056
1961.2509,100.053
1962.2151,100.04
1963.1793,100.013
1964.1436,99.9754
1965.1078,99.9371
1966.0720,99.9149
1967.0363,99.9224
1968.0005,99.9599
1968.9647,100.014
1969.9290,100.067
1970.8932,100.105
1971.8574,100.125
1972.8217,100.13
1973.7859,100.129
1974.7501,100.125
1975.7144,100.123
1976.6786,100.123
1977.6428,100.122
1978.6071,100.123
1979.5713,100.125
1980.5355,100.129
1981.4998,100.133
1982.4640,100.134
1983.4282,100.129
1984.3925,100.115
1985.3567,100.093
1986.3209,100.063
1987.2852,100.028
1988.2494,99.9907
1989.2136,99.9567
1990.1779,99.9341
1991.1421,99.9314
1992.1063,99.952
1993.0706,99.9905
1994.0348,100.035
1994.9990,100.073
1995.9633,100.099
1996.9275,100.112
1997.8917,100.117
1998.8560,100.117
1999.8202,100.119
2000.7844,100.122
2001.7487,100.126
2002.7129,100.128
2003.6771,100.128
2004.6414,100.123
2005.6056,100.116
2006.5698,100.107
2007.5341,100.099
2008.4983,100.096
2009.4625,100.098
2010.4268,100.103
2011.3910,100.106
2012.3552,100.099
2013.3195,100.079
2014.2837,100.048
2015.2479,100.014
2016.2122,99.989
2017.1764,99.9838
2018.1406,99.9991
2019.1049,100.027
2020.0691,100.056
2021.0333,100.077
2021.9976,100.088
2022.9618,100.092
2023.9260,100.094
2024.8903,100.097
2025.8545,100.102
2026.8187,100.106
2027.7830,100.109
2028.7472,100.108
2029.7114,100.103
2030.6757,100.097
2031.6399,100.092
2032.6041,100.088
2033.5684,100.087
2034.5326,100.088
2035.4968,100.087
2036.4611,100.082
2037.4253,100.07
2038.3895,100.052
2039.3538,100.031
2040.3180,100.015
2041.2822,100.01
2042.2465,100.017
2043.2107,100.034
2044.1749,100.053
2045.1392,100.068
2046.1034,100.076
2047.0676,100.076
2048.0320,100.073
2048.9961,100.069
2049.9604,100.067
2050.9246,100.067
2051.8889,100.069
2052.8530,100.072
2053.8174,100.074
2054.7815,100.074
2055.7458,100.071
2056.7100,100.067
2057.6743,100.062
2058.6384,100.056
2059.6028,100.047
2060.5669,100.032
2061.5313,100.012
2062.4954,99.9894
2063.4597,99.9711
2064.4238,99.9639
2065.3882,99.9708
2066.3523,99.9886
2067.3167,100.01
2068.2808,100.028
2069.2451,100.038
2070.2092,100.042
2071.1736,100.042
2072.1377,100.042
2073.1021,100.042
2074.0662,100.042
2075.0305,100.039
2075.9946,100.034
2076.9590,100.029
2077.9231,100.024
2078.8875,100.019
2079.8516,100.015
2080.8159,100.011
2081.7800,100.007
2082.7444,100.003
2083.7085,99.9987
2084.6729,99.9938
2085.6370,99.9881
2086.6013,99.9815
2087.5654,99.9748
2088.5298,99.9692
2089.4939,99.9659
2090.4583,99.9651
2091.4224,99.9659
2092.3867,99.9669
2093.3508,99.9667
2094.3152,99.9647
2095.2793,99.9612
2096.2437,99.9572
2097.2078,99.9538
2098.1721,99.9513
2099.1362,99.9498
2100.1006,99.9476
2101.0647,99.9467
2102.0291,99.9453
2102.9932,99.9432
2103.9575,99.9403
2104.9216,99.9367
2105.8860,99.9325
2106.8501,99.928
2107.8145,99.9234
2108.7786,99.9185
2109.7429,99.9128
2110.7070,99.9059
2111.6714,99.8983
2112.6355,99.8917
2113.5999,99.8885
2114.5640,99.8902
2115.5283,99.897
2116.4924,99.9064
2117.4568,99.915
2118.4209,99.92
2119.3853,99.9204
2120.3494,99.9176
2121.3137,99.9138
2122.2778,99.9113
2123.2422,99.9109
2124.2063,99.9123
2125.1707,99.9143
2126.1348,99.9164
2127.0991,99.9183
2128.0632,99.9203
2129.0276,99.9226
2129.9917,99.9244
2130.9561,99.9249
2131.9202,99.9228
2132.8845,99.9179
2133.8486,99.9112
2134.8130,99.9055
2135.7771,99.9038
2136.7415,99.9081
2137.7056,99.9183
2138.6699,99.9313
2139.6340,99.9429
2140.5984,99.9499
2141.5625,99.9514
2142.5269,99.9496
2143.4910,99.9482
2144.4553,99.95
2145.4194,99.9555
2146.3838,99.9631
2147.3479,99.9698
2148.3123,99.9733
2149.2764,99.9728
2150.2407,99.9694
2151.2048,99.965
2152.1692,99.9617
2153.1333,99.961
2154.0977,99.9639
2155.0618,99.9701
2156.0261,99.9784
2156.9902,99.9868
2157.9546,99.9929
2158.9187,99.995
2159.8831,99.993
2160.8472,99.9884
2161.8115,99.9837
2162.7756,99.9815
2163.7400,99.983
2164.7041,99.9876
2165.6685,99.9931
2166.6326,99.9968
2167.5969,99.9971
2168.5610,99.9939
2169.5254,99.9894
2170.4895,99.9863
2171.4539,99.9866
2172.4180,99.9905
2173.3823,99.9963
2174.3464,100.002
2175.3108,100.006
2176.2749,100.007
2177.2393,100.008
2178.2034,100.008
2179.1677,100.009
2180.1318,100.008
2181.0962,100.006
2182.0603,100.001
2183.0247,99.9947
2183.9888,99.9895
2184.9531,99.9873
2185.9172,99.9892
2186.8816,99.995
2187.8457,100.004
2188.8101,100.013
2189.7742,100.023
2190.7385,100.03
2191.7026,100.035
2192.6670,100.038
2193.6311,100.039
2194.5955,100.039
2195.5596,100.04
2196.5239,100.04
2197.4880,100.04
2198.4524,100.04
2199.4165,100.038
2200.3809,100.036
2201.3450,100.034
2202.3093,100.035
2203.2734,100.037
2204.2378,100.039
2205.2019,100.042
2206.1663,100.045
2207.1304,100.048
2208.0947,100.052
2209.0588,100.057
2210.0232,100.062
2210.9873,100.065
2211.9517,100.065
2212.9158,100.061
2213.8801,100.055
2214.8442,100.048
2215.8086,100.044
2216.7727,100.041
2217.7371,100.04
2218.7012,100.039
2219.6655,100.036
2220.6296,100.033
2221.5940,100.029
2222.5581,100.027
2223.5225,100.028
2224.4866,100.03
2225.4509,100.033
2226.4150,100.033
2227.3794,100.03
2228.3435,100.023
2229.3079,100.014
2230.2720,100.004
2231.2363,99.9949
2232.2004,99.9863
2233.1648,99.9792
2234.1289,99.9741
2235.0933,99.9713
2236.0574,99.9705
2237.0217,99.9705
2237.9858,99.9693
2238.9502,99.9651
2239.9143,99.9573
2240.8787,99.9465
2241.8428,99.9346
2242.8071,99.9235
2243.7712,99.9138
2244.7356,99.9057
2245.6997,99.8984
2246.6641,99.8913
2247.6282,99.8841
2248.5925,99.8761
2249.5566,99.8666
2250.5210,99.8545
2251.4851,99.8391
2252.4495,99.8212
2253.4136,99.8024
2254.3779,99.785
2255.3420,99.7704
2256.3064,99.7588
2257.2705,99.7494
2258.2349,99.741
2259.1990,99.733
2260.1633,99.7255
2261.1274,99.7187
2262.0918,99.7128
2263.0559,99.7076
2264.0203,99.7029
2264.9844,99.699
2265.9487,99.6959
2266.9128,99.6936
2267.8772,99.6917
2268.8413,99.6894
2269.8057,99.6865
2270.7698,99.6832
2271.7341,99.6804
2272.6982,99.6788
2273.6626,99.6789
2274.6267,99.6808
2275.5911,99.6846
2276.5552,99.6907
2277.5195,99.6993
2278.4836,99.7106
2279.4480,99.7238
2280.4121,99.7367
2281.3765,99.7468
2282.3406,99.7506
2283.3049,99.7452
2284.2690,99.7285
2285.2334,99.7006
2286.1975,99.6639
2287.1619,99.6223
2288.1260,99.5797
2289.0903,99.5378
2290.0544,99.4957
2291.0188,99.452
2291.9829,99.407
2292.9473,99.3642
2293.9114,99.3292
2294.8757,99.3064
2295.8398,99.2969
2296.8042,99.2982
2297.7683,99.3072
2298.7327,99.3232
2299.6968,99.349
2300.6611,99.388
2301.6252,99.4403
2302.5896,99.4991
2303.5537,99.5525
2304.5181,99.5884
2305.4822,99.601
2306.4465,99.596
2307.4106,99.5901
2308.3750,99.6056
2309.3391,99.6598
2310.3035,99.7566
2311.2676,99.8839
2312.2319,100.019
2313.1960,100.14
2314.1604,100.238
2315.1245,100.319
2316.0889,100.398
2317.0530,100.494
2318.0173,100.611
2318.9814,100.736
2319.9458,100.837
2320.9099,100.873
2321.8743,100.811
2322.8384,100.644
2323.8027,100.407
2324.7668,100.16
2325.7312,99.9749
2326.6953,99.9003
2327.6597,99.9463
2328.6238,100.077
2329.5881,100.222
2330.5522,100.305
2331.5166,100.28
2332.4807,100.151
2333.4451,99.9673
2334.4092,99.7908
2335.3735,99.6648
2336.3376,99.5971
2337.3020,99.5627
2338.2661,99.5217
2339.2305,99.4444
2340.1946,99.3354
2341.1589,99.2502
2342.1230,99.2857
2343.0874,99.5042
2344.0515,99.8118
2345.0159,99.9778
2345.9800,99.8608
2346.9443,99.5449
2347.9084,99.2366
2348.8728,99.1073
2349.8369,99.2113
2350.8013,99.4769
2351.7654,99.7479
2352.7297,99.8744
2353.6938,99.8147
2354.6582,99.649
2355.6223,99.4631
2356.5867,99.2683
2357.5508,99.0502
2358.5151,98.8418
2359.4792,98.7118
2360.4436,98.6981
2361.4077,98.7833
2362.3721,98.9341
2363.3362,99.137
2364.3005,99.3907
2365.2646,99.6832
2366.2290,99.9894
2367.1931,100.287
2368.1575,100.564
2369.1216,100.818
2370.0859,101.041
2371.0500,101.222
2372.0144,101.351
2372.9785,101.42
2373.9429,101.422
2374.9070,101.353
2375.8713,101.214
2376.8354,101.014
2377.7998,100.776
2378.7639,100.527
2379.7283,100.296
2380.6924,100.105
2381.6567,99.9669
2382.6208,99.8837
2383.5852,99.848
2384.5493,99.848
2385.5137,99.8702
2386.4778,99.9022
2387.4421,99.9346
2388.4063,99.9614
2389.3706,99.9802
2390.3347,99.9916
2391.2991,99.9976
2392.2632,100.001
2393.2275,100.004
2394.1917,100.006
2395.1560,100.009
2396.1201,100.013
2397.0845,100.017
2398.0486,100.022
2399.0129,100.028
2399.9771,100.033
2400.9414,100.036
2401.9055,100.035
2402.8699,100.031
2403.8340,100.024
2404.7983,100.019
2405.7625,100.018
2406.7268,100.021
2407.6909,100.028
2408.6553,100.036
2409.6194,100.042
2410.5837,100.045
2411.5479,100.046
2412.5122,100.045
2413.4763,100.044
2414.4407,100.044
2415.4048,100.046
2416.3691,100.05
2417.3333,100.056
2418.2976,100.062
2419.2617,100.069
2420.2261,100.072
2421.1902,100.072
2422.1545,100.07
2423.1187,100.068
2424.0830,100.069
2425.0471,100.075
2426.0115,100.085
2426.9756,100.095
2427.9399,100.101
2428.9041,100.103
2429.8684,100.1
2430.8325,100.098
2431.7969,100.098
2432.7610,100.101
2433.7253,100.106
2434.6895,100.11
2435.6538,100.111
2436.6179,100.11
2437.5823,100.11
2438.5464,100.112
2439.5107,100.117
2440.4749,100.123
2441.4392,100.13
2442.4033,100.135
2443.3677,100.138
2444.3318,100.141
2445.2961,100.144
2446.2603,100.146
2447.2246,100.146
2448.1887,100.144
2449.1531,100.14
2450.1172,100.137
2451.0815,100.137
2452.0457,100.142
2453.0100,100.151
2453.9741,100.161
2454.9385,100.169
2455.9026,100.174
2456.8669,100.175
2457.8311,100.173
2458.7954,100.171
2459.7595,100.171
2460.7239,100.174
2461.6880,100.178
2462.6523,100.183
2463.6165,100.186
2464.5808,100.188
2465.5449,100.188
2466.5093,100.189
2467.4734,100.189
2468.4377,100.19
2469.4019,100.191
2470.3662,100.192
2471.3303,100.191
2472.2947,100.191
2473.2588,100.192
2474.2231,100.195
2475.1873,100.2
2476.1516,100.206
2477.1157,100.213
2478.0801,100.219
2479.0442,100.224
2480.0085,100.229
2480.9727,100.233
2481.9370,100.237
2482.9011,100.24
2483.8655,100.24
2484.8296,100.239
2485.7939,100.236
2486.7581,100.234
2487.7224,100.235
2488.6865,100.238
2489.6509,100.243
2490.6150,100.247
2491.5793,100.248
2492.5435,100.248
2493.5078,100.247
2494.4719,100.247
2495.4363,100.25
2496.4004,100.255
2497.3647,100.262
2498.3289,100.268
2499.2932,100.274
2500.2573,100.279
2501.2217,100.282
2502.1858,100.286
2503.1501,100.29
2504.1143,100.295
2505.0786,100.299
2506.0427,100.302
2507.0071,100.304
2507.9712,100.304
2508.9355,100.304
2509.8997,100.305
2510.8640,100.306
2511.8281,100.308
2512.7925,100.311
2513.7566,100.316
2514.7209,100.322
2515.6851,100.33
2516.6494,100.339
2517.6135,100.347
2518.5779,100.352
2519.5420,100.354
2520.5063,100.354
2521.4705,100.354
2522.4348,100.354
2523.3989,100.356
2524.3633,100.358
2525.3274,100.361
2526.2917,100.364
2527.2559,100.368
2528.2202,100.373
2529.1843,100.378
2530.1487,100.383
2531.1128,100.388
2532.0771,100.391
2533.0413,100.391
2534.0056,100.39
2534.9697,100.387
2535.9341,100.385
2536.8982,100.384
2537.8625,100.386
2538.8267,100.39
2539.7910,100.395
2540.7551,100.399
2541.7195,100.401
2542.6836,100.402
2543.6479,100.402
2544.6121,100.403
2545.5764,100.407
2546.5405,100.413
2547.5049,100.419
2548.4690,100.424
2549.4333,100.425
2550.3975,100.425
2551.3618,100.426
2552.3259,100.428
2553.2903,100.433
2554.2544,100.439
2555.2188,100.445
2556.1829,100.447
2557.1472,100.447
2558.1113,100.447
2559.0757,100.448
2560.0398,100.452
2561.0042,100.457
2561.9683,100.461
2562.9326,100.461
2563.8967,100.458
2564.8611,100.454
2565.8252,100.451
2566.7896,100.453
2567.7537,100.459
2568.7180,100.467
2569.6821,100.474
2570.6465,100.476
2571.6106,100.472
2572.5750,100.466
2573.5391,100.459
2574.5034,100.456
2575.4675,100.455
2576.4319,100.458
2577.3960,100.462
2578.3604,100.467
2579.3245,100.472
2580.2888,100.478
2581.2529,100.486
2582.2173,100.495
2583.1814,100.502
2584.1458,100.507
2585.1099,100.509
2586.0742,100.507
2587.0383,100.502
2588.0027,100.498
2588.9668,100.494
2589.9312,100.49
2590.8953,100.486
2591.8596,100.482
2592.8237,100.48
2593.7881,100.478
2594.7522,100.479
2595.7166,100.48
2596.6807,100.483
2597.6450,100.486
2598.6091,100.488
2599.5735,100.492
2600.5376,100.497
2601.5020,100.504
2602.4661,100.511
2603.4304,100.517
2604.3945,100.522
2605.3589,100.523
2606.3230,100.524
2607.2874,100.524
2608.2515,100.524
2609.2158,100.523
2610.1799,100.522
2611.1443,100.519
2612.1084,100.517
2613.0728,100.514
2614.0369,100.513
2615.0012,100.513
2615.9653,100.513
2616.9297,100.513
2617.8938,100.511
2618.8582,100.508
2619.8223,100.506
2620.7866,100.505
2621.7507,100.506
2622.7151,100.509
2623.6792,100.512
2624.6436,100.516
2625.6077,100.518
2626.5720,100.52
2627.5361,100.521
2628.5005,100.523
2629.4646,100.524
2630.4290,100.525
2631.3931,100.524
2632.3574,100.521
2633.3215,100.516
2634.2859,100.51
2635.2500,100.504
2636.2144,100.499
2637.1785,100.497
2638.1428,100.498
2639.1069,100.502
2640.0713,100.51
2641.0354,100.518
2641.9998,100.524
2642.9639,100.528
2643.9282,100.528
2644.8923,100.524
2645.8567,100.518
2646.8208,100.511
2647.7852,100.506
2648.7493,100.501
2649.7136,100.497
2650.6777,100.493
2651.6421,100.489
2652.6062,100.485
2653.5706,100.483
2654.5347,100.482
2655.4990,100.484
2656.4631,100.487
2657.4275,100.489
2658.3916,100.492
2659.3560,100.492
2660.3201,100.492
2661.2844,100.49
2662.2485,100.489
2663.2129,100.489
2664.1770,100.492
2665.1414,100.498
2666.1055,100.507
2667.0698,100.516
2668.0339,100.522
2668.9983,100.524
2669.9624,100.52
2670.9268,100.513
2671.8909,100.505
2672.8552,100.501
2673.8193,100.501
2674.7837,100.504
2675.7478,100.509
2676.7122,100.512
2677.6763,100.512
2678.6406,100.508
2679.6047,100.501
2680.5691,100.494
2681.5332,100.487
2682.4976,100.482
2683.4617,100.477
2684.4260,100.473
2685.3901,100.47
2686.3545,100.467
2687.3186,100.466
2688.2830,100.468
2689.2471,100.471
2690.2114,100.474
2691.1755,100.477
2692.1399,100.479
2693.1040,100.479
2694.0684,100.478
2695.0325,100.477
2695.9968,100.477
2696.9609,100.477
2697.9253,100.476
2698.8894,100.472
2699.8538,100.467
2700.8179,100.46
2701.7822,100.453
2702.7463,100.445
2703.7107,100.437
2704.6748,100.428
2705.6392,100.418
2706.6033,100.408
2707.5676,100.4
2708.5317,100.397
2709.4961,100.398
2710.4602,100.402
2711.4246,100.406
2712.3887,100.407
2713.3530,100.402
2714.3171,100.392
2715.2815,100.379
2716.2456,100.365
2717.2100,100.353
2718.1741,100.344
2719.1384,100.34
2720.1025,100.339
2721.0669,100.341
2722.0310,100.342
2722.9954,100.34
2723.9595,100.336
2724.9238,100.331
2725.8879,100.327
2726.8523,100.326
2727.8164,100.326
2728.7808,100.325
2729.7449,100.32
2730.7092,100.311
2731.6733,100.3
2732.6377,100.289
2733.6018,100.281
2734.5662,100.276
2735.5303,100.271
2736.4946,100.263
2737.4587,100.251
2738.4231,100.235
2739.3872,100.219
2740.3516,100.205
2741.3157,100.195
2742.2800,100.19
2743.2441,100.189
2744.2085,100.19
2745.1726,100.194
2746.1370,100.197
2747.1011,100.199
2748.0654,100.198
2749.0295,100.194
2749.9939,100.187
2750.9580,100.179
2751.9224,100.172
2752.8865,100.167
2753.8508,100.165
2754.8149,100.164
2755.7793,100.163
2756.7434,100.158
2757.7078,100.15
2758.6719,100.138
2759.6362,100.124
2760.6003,100.11
2761.5647,100.101
2762.5288,100.096
2763.4932,100.097
2764.4573,100.1
2765.4216,100.104
2766.3857,100.107
2767.3501,100.107
2768.3142,100.106
2769.2786,100.105
2770.2427,100.103
2771.2070,100.1
2772.1711,100.094
2773.1355,100.086
2774.0996,100.077
2775.0640,100.07
2776.0281,100.065
2776.9924,100.063
2777.9565,100.061
2778.9209,100.054
2779.8850,100.04
2780.8494,100.02
2781.8135,99.9961
2782.7778,99.9741
2783.7419,99.9578
2784.7063,99.949
2785.6704,99.9466
2786.6348,99.9472
2787.5989,99.9469
2788.5632,99.9426
2789.5273,99.9329
2790.4917,99.9186
2791.4558,99.9021
2792.4202,99.886
2793.3843,99.8727
2794.3486,99.8628
2795.3127,99.8553
2796.2771,99.848
2797.2412,99.8387
2798.2056,99.8262
2799.1697,99.8106
2800.1340,99.7929
2801.0981,99.7726
2802.0625,99.7548
2803.0266,99.7404
2803.9910,99.7287
2804.9551,99.7178
2805.9194,99.7052
2806.8835,99.6889
2807.8479,99.6677
2808.8120,99.6419
2809.7764,99.6127
2810.7405,99.5817
2811.7048,99.5509
2812.6689,99.5219
2813.6333,99.4961
2814.5974,99.4738
2815.5618,99.4537
2816.5259,99.4332
2817.4902,99.4088
2818.4543,99.3777
2819.4187,99.3388
2820.3828,99.2936
2821.3472,99.2453
2822.3113,99.1976
2823.2756,99.1528
2824.2397,99.1115
2825.2041,99.0727
2826.1682,99.0346
2827.1326,98.9956
2828.0967,98.9546
2829.0610,98.9106
2830.0251,98.8629
2830.9895,98.8105
2831.9536,98.753
2832.9180,98.6907
2833.8821,98.625
2834.8464,98.5577
2835.8105,98.4904
2836.7749,98.4242
2837.7390,98.3593
2838.7034,98.2957
2839.6675,98.2339
2840.6318,98.1748
2841.5959,98.1194
2842.5603,98.0684
2843.5244,98.0211
2844.4888,97.9745
2845.4529,97.9243
2846.4172,97.8657
2847.3813,97.7952
2848.3457,97.7112
2849.3098,97.6141
2850.2742,97.5054
2851.2383,97.3863
2852.2026,97.2575
2853.1667,97.1194
2854.1311,96.9732
2855.0952,96.8204
2856.0596,96.6627
2857.0237,96.5004
2857.9880,96.3317
2858.9521,96.1537
2859.9165,95.9637
2860.8806,95.762
2861.8450,95.5525
2862.8091,95.3427
2863.7734,95.1411
2864.7375,94.9545
2865.7019,94.7862
2866.6660,94.6354
2867.6304,94.4987
2868.5945,94.3724
2869.5588,94.254
2870.5229,94.1427
2871.4873,94.038
2872.4514,93.9379
2873.4158,93.8382
2874.3799,93.7331
2875.3442,93.6164
2876.3083,93.4839
2877.2727,93.3338
2878.2368,93.1671
2879.2012,92.9882
2880.1653,92.8048
2881.1296,92.6282
2882.0938,92.4712
2883.0581,92.3456
2884.0222,92.2578
2884.9866,92.2066
2885.9507,92.1822
2886.9150,92.1688
2887.8792,92.149
2888.8435,92.1105
2889.8076,92.0514
2890.7720,91.982
2891.7361,91.9195
2892.7004,91.8767
2893.6646,91.8497
2894.6289,91.8131
2895.5930,91.73
2896.5574,91.573
2897.5215,91.3463
2898.4858,91.0931
2899.4500,90.8811
2900.4143,90.772
2901.3784,90.7928
2902.3428,90.9244
2903.3069,91.1149
2904.2712,91.3062
2905.2354,91.4594
2906.1997,91.5641
2907.1638,91.6324
2908.1282,91.6853
2909.0923,91.7422
2910.0566,91.8163
2911.0208,91.915
2911.9851,92.0394
2912.9492,92.1835
2913.9136,92.334
2914.8777,92.4731
2915.8420,92.5859
2916.8062,92.6656
2917.7705,92.7151
2918.7346,92.7448
2919.6990,92.7661
2920.6631,92.7881
2921.6274,92.8155
2922.5916,92.8493
2923.5559,92.8877
2924.5200,92.9272
2925.4844,92.9644
2926.4485,92.9971
2927.4128,93.0257
2928.3770,93.0522
2929.3413,93.0777
2930.3054,93.1011
2931.2698,93.1184
2932.2339,93.1254
2933.1982,93.1204
2934.1624,93.1056
2935.1267,93.0855
2936.0908,93.0639
2937.0552,93.0406
2938.0193,93.0124
2938.9836,92.9755
2939.9478,92.9296
2940.9121,92.8803
2941.8762,92.8374
2942.8406,92.8104
2943.8047,92.8029
2944.7690,92.8093
2945.7332,92.8161
2946.6975,92.8074
2947.6616,92.7718
2948.6260,92.7068
2949.5901,92.6188
2950.5544,92.5185
2951.5186,92.4156
2952.4829,92.3145
2953.4470,92.2148
2954.4114,92.1137
2955.3755,92.0096
2956.3398,91.9034
2957.3040,91.7978
2958.2683,91.6942
2959.2324,91.591
2960.1968,91.483
2961.1609,91.363
2962.1252,91.2244
2963.0894,91.0642
2964.0537,90.8833
2965.0178,90.6872
2965.9822,90.4846
2966.9463,90.2864
2967.9106,90.1046
2968.8748,89.9513
2969.8391,89.8372
2970.8032,89.7684
2971.7676,89.7448
2972.7317,89.7591
2973.6960,89.7982
2974.6602,89.8482
2975.6245,89.8976
2976.5886,89.9412
2977.5530,89.9794
2978.5171,90.016
2979.4814,90.0539
2980.4456,90.0904
2981.4099,90.114
2982.3740,90.1056
2983.3384,90.0462
2984.3025,89.9308
2985.2668,89.7809
2986.2310,89.648
2987.1953,89.6
2988.1594,89.6936
2989.1238,89.9462
2990.0879,90.3229
2991.0522,90.7497
2992.0164,91.1454
2992.9807,91.4557
2993.9448,91.6718
2994.9092,91.824
2995.8733,91.958
2996.8376,92.1093
2997.8018,92.2907
2998.7661,92.4955
2999.7302,92.7104
3000.6946,92.9271
3001.6587,93.1464
3002.6230,93.3744
3003.5872,93.6158
3004.5515,93.8695
3005.5156,94.1282
3006.4800,94.3813
3007.4441,94.6195
3008.4084,94.8385
3009.3726,95.041
3010.3369,95.2363
3011.3010,95.4361
3012.2654,95.6498
3013.2295,95.8796
3014.1938,96.1198
3015.1580,96.3594
3016.1223,96.5877
3017.0864,96.7979
3018.0508,96.9893
3019.0149,97.1653
3019.9792,97.3308
3020.9434,97.4905
3021.9077,97.6474
3022.8718,97.8033
3023.8362,97.958
3024.8003,98.1091
3025.7646,98.2524
3026.7288,98.3834
3027.6931,98.4991
3028.6572,98.6005
3029.6216,98.6926
3030.5857,98.7826
3031.5500,98.8769
3032.5142,98.978
3033.4785,99.0842
3034.4426,99.1914
3035.4070,99.2953
3036.3711,99.3933
3037.3354,99.4839
3038.2996,99.5659
3039.2639,99.6379
3040.2280,99.6982
3041.1924,99.7458
3042.1565,99.7813
3043.1208,99.8067
3044.0850,99.8255
3045.0493,99.842
3046.0134,99.8605
3046.9778,99.884
3047.9419,99.9128
3048.9063,99.9435
3049.8704,99.9702
3050.8347,99.9864
3051.7988,99.9889
3052.7632,99.9791
3053.7273,99.9636
3054.6917,99.9506
3055.6558,99.9469
3056.6201,99.9547
3057.5842,99.9707
3058.5486,99.9879
3059.5127,99.9981
3060.4771,99.9949
3061.4412,99.9764
3062.4055,99.9449
3063.3696,99.9093
3064.3340,99.8804
3065.2981,99.8667
3066.2625,99.8703
3067.2266,99.8869
3068.1909,99.9081
3069.1550,99.9263
3070.1194,99.9374
3071.0835,99.9414
3072.0479,99.9399
3073.0120,99.9333
3073.9763,99.9193
3074.9404,99.8956
3075.9048,99.8621
3076.8689,99.8233
3077.8333,99.7869
3078.7974,99.7607
3079.7617,99.7485
3080.7258,99.7494
3081.6902,99.7578
3082.6543,99.7674
3083.6187,99.7734
3084.5828,99.7736
3085.5471,99.7688
3086.5112,99.7609
3087.4756,99.7517
3088.4397,99.7416
3089.4041,99.7295
3090.3682,99.7135
3091.3325,99.6926
3092.2966,99.6677
3093.2610,99.6411
3094.2251,99.615
3095.1895,99.5903
3096.1536,99.5657
3097.1179,99.5396
3098.0820,99.5119
3099.0464,99.4858
3100.0105,99.4665
3100.9749,99.4585
3101.9390,99.4631
3102.9033,99.4772
3103.8674,99.4948
3104.8318,99.5092
3105.7959,99.5155
3106.7603,99.511
3107.7244,99.4958
3108.6887,99.4722
3109.6528,99.4436
3110.6172,99.4134
3111.5813,99.3842
3112.5457,99.3572
3113.5098,99.3324
3114.4741,99.3092
3115.4382,99.2876
3116.4026,99.2676
3117.3667,99.2498
3118.3311,99.2343
3119.2952,99.2211
3120.2595,99.2097
3121.2236,99.2001
3122.1880,99.192
3123.1521,99.1862
3124.1165,99.1835
3125.0806,99.1847
3126.0449,99.189
3127.0090,99.1933
3127.9734,99.1922
3128.9375,99.1804
3129.9019,99.1558
3130.8660,99.1216
3131.8303,99.0856
3132.7944,99.0573
3133.7588,99.0424
3134.7229,99.0413
3135.6873,99.0485
3136.6514,99.0572
3137.6157,99.0623
3138.5798,99.0623
3139.5442,99.0578
3140.5083,99.0501
3141.4727,99.0395
3142.4368,99.0255
3143.4011,99.0074
3144.3652,98.9858
3145.3296,98.9628
3146.2937,98.941
3147.2581,98.9232
3148.2222,98.9106
3149.1865,98.9023
3150.1506,98.8956
3151.1150,98.8867
3152.0791,98.8726
3153.0435,98.8522
3154.0076,98.8274
3154.9719,98.8014
3155.9360,98.7772
3156.9004,98.7562
3157.8645,98.7378
3158.8289,98.7206
3159.7930,98.7035
3160.7573,98.6862
3161.7214,98.669
3162.6858,98.652
3163.6499,98.6344
3164.6143,98.6156
3165.5784,98.5957
3166.5427,98.5765
3167.5068,98.5602
3168.4712,98.548
3169.4353,98.634
3170.3997,98.6221
3171.3638,98.6026
3172.3281,98.5731
3173.2922,98.5353
3174.2566,98.4944
3175.2207,98.4569
3176.1851,98.4278
3177.1492,98.4088
3178.1135,98.3978
3179.0776,98.3908
3180.0420,98.3837
3181.0061,98.3742
3181.9705,98.3623
3182.9346,98.35
3183.8989,98.3395
3184.8630,98.3314
3185.8274,98.3239
3186.7915,98.3131
3187.7559,98.2955
3188.7200,98.2703
3189.6843,98.2408
3190.6484,98.2125
3191.6128,98.1897
3192.5769,98.173
3193.5413,98.1588
3194.5054,98.1421
3195.4697,98.1194
3196.4338,98.0915
3197.3982,98.0624
3198.3623,98.0366
3199.3267,98.0171
3200.2908,98.0035
3201.2551,97.9937
3202.2192,97.9846
3203.1836,97.973
3204.1477,97.9567
3205.1121,97.9348
3206.0762,97.9082
3207.0405,97.8794
3208.0046,97.8508
3208.9690,97.8235
3209.9331,97.7964
3210.8975,97.768
3211.8616,97.7382
3212.8259,97.7096
3213.7900,97.6868
3214.7544,97.6736
3215.7185,97.6699
3216.6829,97.6713
3217.6470,97.671
3218.6113,97.6637
3219.5754,97.6477
3220.5398,97.6253
3221.5039,97.6016
3222.4683,97.5812
3223.4324,97.5665
3224.3967,97.557
3225.3608,97.5499
3226.3252,97.5416
3227.2893,97.529
3228.2537,97.5117
3229.2178,97.4915
3230.1821,97.4722
3231.1462,97.4572
3232.1106,97.4479
3233.0747,97.443
3234.0391,97.4397
3235.0032,97.4345
3235.9675,97.4249
3236.9316,97.4099
3237.8960,97.3895
3238.8601,97.365
3239.8245,97.3383
3240.7886,97.3122
3241.7529,97.2894
3242.7170,97.2724
3243.6814,97.2627
3244.6455,97.2602
3245.6099,97.2631
3246.5740,97.268
3247.5383,97.2712
3248.5024,97.2697
3249.4668,97.2617
3250.4309,97.2469
3251.3953,97.2265
3252.3594,97.2023
3253.3237,97.1773
3254.2878,97.1538
3255.2522,97.1343
3256.2163,97.1204
3257.1807,97.1121
3258.1448,97.1082
3259.1091,97.1055
3260.0732,97.1001
3261.0376,97.0894
3262.0017,97.0737
3262.9661,97.056
3263.9302,97.0404
3264.8945,97.0295
3265.8586,97.0227
3266.8230,97.0163
3267.7871,97.0051
3268.7515,96.9859
3269.7156,96.958
3270.6799,96.9243
3271.6440,96.8895
3272.6084,96.859
3273.5725,96.8377
3274.5369,96.8287
3275.5010,96.8326
3276.4653,96.8468
3277.4294,96.866
3278.3938,96.8831
3279.3579,96.8923
3280.3223,96.8904
3281.2864,96.8787
3282.2507,96.8619
3283.2148,96.8457
3284.1792,96.8335
3285.1433,96.8252
3286.1077,96.8174
3287.0718,96.806
3288.0361,96.7895
3289.0002,96.7697
3289.9646,96.7514
3290.9287,96.7398
3291.8931,96.7366
3292.8572,96.7398
3293.8215,96.744
3294.7856,96.7435
3295.7500,96.7351
3296.7141,96.7195
3297.6785,96.701
3298.6426,96.6855
3299.6069,96.6783
3300.5710,96.6813
3301.5354,96.692
3302.4995,96.7036
3303.4639,96.7073
3304.4280,96.6967
3305.3923,96.6716
3306.3564,96.6387
3307.3208,96.6088
3308.2849,96.5917
3309.2493,96.5905
3310.2134,96.6008
3311.1777,96.6139
3312.1418,96.6217
3313.1062,96.6211
3314.0703,96.6136
3315.0347,96.6026
3315.9988,96.5903
3316.9631,96.5774
3317.9272,96.564
3318.8916,96.5517
3319.8557,96.5435
3320.8201,96.5414
3321.7842,96.5444
3322.7485,96.5476
3323.7126,96.5451
3324.6770,96.5335
3325.6411,96.5141
3326.6055,96.492
3327.5696,96.4727
3328.5339,96.4585
3329.4980,96.448
3330.4624,96.4386
3331.4265,96.429
3332.3909,96.4208
3333.3550,96.4172
3334.3193,96.4202
3335.2834,96.4287
3336.2478,96.4379
3337.2119,96.443
3338.1763,96.442
3339.1404,96.4374
3340.1047,96.4346
3341.0688,96.4384
3342.0332,96.4499
3342.9973,96.4656
3343.9617,96.4796
3344.9258,96.4869
3345.8901,96.4861
3346.8542,96.4791
3347.8186,96.4693
3348.7827,96.4595
3349.7471,96.4507
3350.7112,96.4424
3351.6755,96.4343
3352.6396,96.4265
3353.6040,96.4199
3354.5681,96.4152
3355.5325,96.4128
3356.4966,96.4126
3357.4609,96.4146
3358.4250,96.4186
3359.3894,96.4238
3360.3535,96.4276
3361.3179,96.4271
3362.2820,96.4206
3363.2463,96.4097
3364.2104,96.3996
3365.1748,96.3965
3366.1389,96.4044
3367.1033,96.4225
3368.0674,96.4457
3369.0317,96.4669
3369.9958,96.4816
3370.9602,96.4888
3371.9243,96.4902
3372.8887,96.4884
3373.8528,96.4848
3374.8171,96.4797
3375.7813,96.4744
3376.7456,96.4718
3377.7097,96.4756
3378.6741,96.4879
3379.6382,96.5069
3380.6025,96.526
3381.5667,96.5379
3382.5310,96.5383
3383.4951,96.5291
3384.4595,96.517
3385.4236,96.5093
3386.3879,96.5089
3387.3521,96.5137
3388.3164,96.5187
3389.2805,96.5201
3390.2449,96.518
3391.2090,96.516
3392.1733,96.5183
3393.1375,96.5272
3394.1018,96.5424
3395.0659,96.5626
3396.0303,96.5859
3396.9944,96.6094
3397.9587,96.6289
3398.9229,96.6393
3399.8872,96.6381
3400.8513,96.6278
3401.8157,96.6164
3402.7798,96.6139
3403.7441,96.6267
3404.7083,96.6539
3405.6726,96.6872
3406.6367,96.7153
3407.6011,96.7297
3408.5652,96.7286
3409.5295,96.7179
3410.4937,96.7074
3411.4580,96.7059
3412.4221,96.7168
3413.3865,96.7366
3414.3506,96.7575
3415.3149,96.7711
3416.2791,96.7727
3417.2434,96.7644
3418.2075,96.754
3419.1719,96.7525
3420.1360,96.7686
3421.1003,96.8036
3422.0645,96.8506
3423.0288,96.8981
3423.9929,96.9357
3424.9573,96.9584
3425.9214,96.9681
3426.8857,96.972
3427.8499,96.9798
3428.8142,96.9991
3429.7783,97.0319
3430.7427,97.0742
3431.7068,97.1181
3432.6711,97.1564
3433.6353,97.1854
3434.5996,97.2057
3435.5637,97.2201
3436.5281,97.2309
3437.4922,97.2383
3438.4565,97.2411
3439.4207,97.238
3440.3850,97.2284
3441.3491,97.213
3442.3135,97.1932
3443.2776,97.1724
3444.2419,97.1565
3445.2061,97.1546
3446.1704,97.1757
3447.1345,97.2231
3448.0989,97.2893
3449.0630,97.3596
3450.0273,97.4193
3450.9915,97.4608
3451.9558,97.4851
3452.9199,97.4985
3453.8843,97.5084
3454.8484,97.5194
3455.8127,97.5307
3456.7769,97.5386
3457.7412,97.5404
3458.7053,97.537
3459.6697,97.5333
3460.6338,97.5354
3461.5981,97.5465
3462.5623,97.566
3463.5266,97.5904
3464.4907,97.6168
3465.4551,97.6446
3466.4192,97.6751
3467.3835,97.708
3468.3477,97.7403
3469.3120,97.7664
3470.2761,97.7824
3471.2405,97.7894
3472.2046,97.7942
3473.1689,97.8056
3474.1331,97.8285
3475.0974,97.8592
3476.0615,97.8866
3477.0259,97.8987
3477.9900,97.8901
3478.9543,97.8665
3479.9185,97.8433
3480.8828,97.8379
3481.8469,97.8593
3482.8113,97.902
3483.7754,97.9506
3484.7397,97.99
3485.7039,98.0144
3486.6682,98.0282
3487.6323,98.0423
3488.5967,98.0657
3489.5608,98.0986
3490.5251,98.1327
3491.4893,98.1574
3492.4536,98.167
3493.4177,98.1638
3494.3821,98.1571
3495.3462,98.1555
3496.3105,98.1592
3497.2747,98.1588
3498.2390,98.1422
3499.2031,98.1047
3500.1675,98.0559
3501.1316,98.02
3502.0959,98.0246
3503.0601,98.0803
3504.0244,98.169
3504.9885,98.2559
3505.9529,98.3139
3506.9170,98.336
3507.8813,98.3346
3508.8455,98.3325
3509.8098,98.3501
3510.7739,98.3939
3511.7383,98.4545
3512.7024,98.5163
3513.6667,98.5678
3514.6309,98.6045
3515.5952,98.6265
3516.5593,98.6355
3517.5237,98.6328
3518.4878,98.6186
3519.4521,98.5925
3520.4163,98.5545
3521.3806,98.507
3522.3447,98.4555
3523.3091,98.4081
3524.2732,98.3737
3525.2375,98.3606
3526.2017,98.3756
3527.1660,98.4222
3528.1301,98.4971
3529.0945,98.5882
3530.0586,98.6777
3531.0229,98.751
3531.9871,98.8027
3532.9514,98.8366
3533.9155,98.8624
3534.8799,98.8921
3535.8440,98.9345
3536.8083,98.9884
3537.7725,99.0403
3538.7368,99.0708
3539.7009,99.065
3540.6653,99.0184
3541.6294,98.9385
3542.5938,98.8462
3543.5579,98.7758
3544.5222,98.7635
3545.4863,98.8208
3546.4507,98.9186
3547.4148,99.0084
3548.3792,99.0593
3549.3433,99.0735
3550.3076,99.0758
3551.2717,99.0962
3552.2361,99.1533
3553.2002,99.2427
3554.1646,99.3393
3555.1287,99.4159
3556.0930,99.4566
3557.0571,99.4581
3558.0215,99.4242
3558.9856,99.3636
3559.9500,99.2889
3560.9141,99.2123
3561.8784,99.141
3562.8425,99.0733
3563.8069,99.0023
3564.7710,98.9398
3565.7354,98.9426
3566.6995,99.074
3567.6638,99.3018
3568.6279,99.5069
3569.5923,99.6129
3570.5564,99.6348
3571.5208,99.6242
3572.4849,99.6174
3573.4492,99.6244
3574.4133,99.6399
3575.3777,99.6561
3576.3418,99.6681
3577.3062,99.674
3578.2703,99.6721
3579.2346,99.6609
3580.1987,99.6417
3581.1631,99.6215
3582.1272,99.6113
3583.0916,99.6165
3584.0557,99.6289
3585.0200,99.6356
3585.9841,99.6443
3586.9485,99.6819
3587.9126,99.7399
3588.8770,99.7625
3589.8411,99.7113
3590.8054,99.6137
3591.7695,99.5094
3592.7339,99.4196
3593.6980,99.3476
3594.6624,99.2887
3595.6265,99.235
3596.5908,99.1814
3597.5549,99.1353
3598.5193,99.1159
3599.4834,99.1407
3600.4478,99.209
3601.4119,99.299
3602.3762,99.3852
3603.3403,99.456
3604.3047,99.514
3605.2688,99.565
3606.2332,99.6157
3607.1973,99.6747
3608.1616,99.7408
3609.1257,99.7906
3610.0901,99.7907
3611.0542,99.7255
3612.0186,99.6107
3612.9829,99.4839
3613.9470,99.3854
3614.9114,99.3394
3615.8755,99.348
3616.8398,99.3954
3617.8040,99.4605
3618.7683,99.5199
3619.7324,99.5364
3620.6968,99.4702
3621.6609,99.3262
3622.6252,99.1715
3623.5894,99.0911
3624.5537,99.1318
3625.5178,99.2724
3626.4822,99.4401
3627.4463,99.5734
3628.4106,99.6631
3629.3748,99.6874
3630.3391,99.5982
3631.3032,99.4205
3632.2676,99.2476
3633.2317,99.1518
3634.1960,99.142
3635.1602,99.1772
3636.1245,99.2049
3637.0886,99.1932
3638.0530,99.1401
3639.0171,99.0609
3639.9814,98.971
3640.9456,98.8812
3641.9099,98.8023
3642.8740,98.7492
3643.8384,98.7309
3644.8025,98.7272
3645.7668,98.674
3646.7310,98.5089
3647.6953,98.3141
3648.6594,98.338
3649.6238,98.6068
3650.5879,98.8203
3651.5522,98.822
3652.5164,98.6984
3653.4807,98.5685
3654.4448,98.4758
3655.4092,98.4008
3656.3733,98.3092
3657.3376,98.1868
3658.3018,98.0507
3659.2661,97.9386
3660.2302,97.8808
3661.1946,97.8769
3662.1587,97.9003
3663.1230,97.9247
3664.0872,97.9474
3665.0515,97.9827
3666.0156,98.032
3666.9800,98.0641
3667.9441,98.0402
3668.9084,97.9686
3669.8726,97.9021
3670.8369,97.8719
3671.8010,97.8675
3672.7654,97.8637
3673.7295,97.8404
3674.6938,97.8173
3675.6580,97.8497
3676.6223,97.9335
3677.5864,97.9944
3678.5508,97.998
3679.5149,97.9681
3680.4792,97.9284
3681.4434,97.8818
3682.4077,97.8317
3683.3718,97.7996
3684.3362,97.8133
3685.3003,97.874
3686.2646,97.9348
3687.2288,97.9287
3688.1931,97.8501
3689.1572,97.7847
3690.1216,97.7925
3691.0857,97.8361
3692.0500,97.8711
3693.0142,97.9006
3693.9785,97.945
3694.9426,98.0157
3695.9070,98.1141
3696.8711,98.2382
3697.8354,98.3839
3698.7996,98.5412
3699.7639,98.6943
3700.7280,98.826
3701.6924,98.9206
3702.6565,98.9654
3703.6208,98.9619
3704.5850,98.9336
3705.5493,98.9139
3706.5134,98.9203
3707.4778,98.9431
3708.4419,98.9674
3709.4063,99.0241
3710.3704,99.1954
3711.3347,99.4919
3712.2988,99.7725
3713.2632,99.8965
3714.2273,99.8586
3715.1917,99.7395
3716.1558,99.6135
3717.1201,99.5131
3718.0842,99.4394
3719.0486,99.3654
3720.0127,99.2818
3720.9771,99.1937
3721.9412,99.1161
3722.9055,99.0655
3723.8696,99.0535
3724.8340,99.0802
3725.7981,99.1315
3726.7625,99.1909
3727.7266,99.2546
3728.6909,99.3294
3729.6550,99.4124
3730.6194,99.4762
3731.5835,99.4765
3732.5479,99.3953
3733.5120,99.2974
3734.4763,99.3063
3735.4404,99.446
3736.4048,99.5791
3737.3689,99.5987
3738.3333,99.5578
3739.2974,99.5925
3740.2617,99.8028
3741.2258,100.187
3742.1902,100.625
3743.1543,100.93
3744.1187,100.959
3745.0828,100.714
3746.0471,100.333
3747.0112,99.9789
3747.9756,99.7556
3748.9397,99.7017
3749.9041,99.8238
3750.8682,100.064
3751.8325,100.247
3752.7966,100.231
3753.7610,100.055
3754.7251,99.8477
3755.6895,99.7018
3756.6536,99.6437
3757.6179,99.6633
3758.5820,99.7364
3759.5464,99.8263
3760.5105,99.8962
3761.4749,99.9328
3762.4390,99.9466
3763.4033,99.9521
3764.3674,99.955
3765.3318,99.9553
3766.2959,99.9544
3767.2603,99.9588
3768.2244,99.9776
3769.1887,100.015
3770.1528,100.061
3771.1172,100.091
3772.0813,100.09
3773.0457,100.063
3774.0098,100.035
3774.9741,100.023
3775.9382,100.025
3776.9026,100.028
3777.8667,100.023
3778.8311,100.007
3779.7952,99.9771
3780.7595,99.9249
3781.7236,99.8554
3782.6880,99.7888
3783.6521,99.7509
3784.6165,99.7602
3785.5806,99.8169
3786.5449,99.9017
3787.5090,99.9861
3788.4734,100.05
3789.4375,100.088
3790.4019,100.107
3791.3660,100.112
3792.3303,100.094
3793.2944,100.034
3794.2588,99.9255
3795.2229,99.7876
3796.1873,99.6649
3797.1514,99.5988
3798.1157,99.6
3799.0798,99.6449
3800.0442,99.6997
3801.0083,99.7446
3801.9727,99.7747
3802.9368,99.7982
3803.9011,99.8403
3804.8652,99.9261
3805.8296,100.049
3806.7937,100.163
3807.7581,100.203
3808.7222,100.145
3809.6865,100.036
3810.6506,99.9588
3811.6150,99.9699
3812.5791,100.052
3813.5435,100.128
3814.5076,100.119
3815.4719,100.004
3816.4360,99.8292
3817.4004,99.6631
3818.3645,99.5586
3819.3289,99.5428
3820.2930,99.6096
3821.2573,99.703
3822.2214,99.7405
3823.1858,99.6879
3824.1499,99.5867
3825.1143,99.5059
3826.0784,99.4899
3827.0427,99.5417
3828.0068,99.6322
3828.9712,99.7222
3829.9353,99.7825
3830.8997,99.8056
3831.8638,99.8023
3832.8281,99.7892
3833.7922,99.7729
3834.7566,99.7413
3835.7207,99.6727
3836.6851,99.5623
3837.6492,99.4432
3838.6135,99.3678
3839.5776,99.3642
3840.5420,99.4267
3841.5061,99.536
3842.4705,99.6649
3843.4346,99.7727
3844.3989,99.8144
3845.3630,99.7715
3846.3274,99.6745
3847.2915,99.5949
3848.2559,99.609
3849.2200,99.7542
3850.1843,99.9992
3851.1484,100.256
3852.1128,100.463
3853.0769,100.627
3854.0413,100.681
3855.0054,100.513
3855.9697,100.19
3856.9338,99.8793
3857.8982,99.6941
3858.8623,99.6444
3859.8267,99.6676
3860.7908,99.6795
3861.7551,99.6347
3862.7192,99.561
3863.6836,99.5269
3864.6477,99.5686
3865.6121,99.6657
3866.5762,99.7698
3867.5405,99.8339
3868.5046,99.8319
3869.4690,99.7775
3870.4331,99.7197
3871.3975,99.7048
3872.3616,99.7385
3873.3259,99.7947
3874.2900,99.8488
3875.2544,99.8919
3876.2185,99.9217
3877.1829,99.93
3878.1470,99.9028
3879.1113,99.838
3880.0754,99.7599
3881.0398,99.7108
3882.0039,99.7246
3882.9683,99.8068
3883.9324,99.9324
3884.8967,100.055
3885.8608,100.127
3886.8252,100.128
3887.7893,100.073
3888.7537,99.9931
3889.7178,99.9167
3890.6821,99.8613
3891.6462,99.8347
3892.6106,99.8257
3893.5747,99.8161
3894.5391,99.8067
3895.5032,99.8114
3896.4675,99.83
3897.4316,99.84
3898.3960,99.8179
3899.3601,99.7637
3900.3245,99.7001
3901.2886,99.6552
3902.2529,99.6511
3903.2170,99.6989
3904.1814,99.7861
3905.1455,99.8807
3906.1099,99.9569
3907.0740,100.012
3908.0383,100.056
3909.0024,100.094
3909.9668,100.121
3910.9309,100.131
3911.8953,100.122
3912.8594,100.098
3913.8237,100.065
3914.7878,100.032
3915.7522,100.007
3916.7163,99.9986
3917.6807,100.002
3918.6448,99.9996
3919.6091,99.971
3920.5732,99.9145
3921.5376,99.8469
3922.5017,99.7926
3923.4661,99.7715
3924.4302,99.7857
3925.3945,99.815
3926.3586,99.8312
3927.3230,99.8174
3928.2871,99.7768
3929.2515,99.7287
3930.2156,99.7037
3931.1799,99.7302
3932.1440,99.8125
3933.1084,99.9231
3934.0725,100.024
3935.0369,100.093
3936.0010,100.126
3936.9653,100.131
3937.9294,100.113
3938.8938,100.076
3939.8579,100.023
3940.8223,99.9649
3941.7864,99.9204
3942.7507,99.902
3943.7148,99.9084
3944.6792,99.9256
3945.6433,99.9377
3946.6077,99.9359
3947.5718,99.9231
3948.5361,99.9122
3949.5002,99.9169
3950.4646,99.9412
3951.4287,99.9782
3952.3931,100.017
3953.3572,100.048
3954.3215,100.067
3955.2856,100.072
3956.2500,100.064
3957.2141,100.048
3958.1785,100.032
3959.1426,100.025
3960.1069,100.037
3961.0710,100.071
3962.0354,100.12
3962.9995,100.17
3963.9639,100.207
3964.9280,100.224
3965.8923,100.219
3966.8564,100.199
3967.8208,100.17
3968.7849,100.134
3969.7493,100.093
3970.7134,100.05
3971.6777,100.012
3972.6418,99.9893
3973.6062,99.9919
3974.5703,100.021
3975.5347,100.066
3976.4988,100.114
3977.4631,100.148
3978.4272,100.163
3979.3916,100.161
3980.3557,100.149
3981.3201,100.137
3982.2842,100.13
3983.2485,100.125
3984.2126,100.123
3985.1770,100.122
3986.1411,100.124
3987.1055,100.133
3988.0696,100.147
3989.0339,100.161
3989.9980,100.166
3990.9624,100.157
3991.9265,100.137
3992.8909,100.118
3993.8550,100.111
3994.8193,100.122
3995.7834,100.146
3996.7478,100.169
3997.7119,100.179
3998.6763,100.174
3999.6404,100.162
4000.6047,99.9742

##### Extended Information
[Comments]
Sample name
Comment
User
Division
Company,HANKYONG

[Detailed Information]
Creation date,4/24/2024 2:08 PM

Data array type,Linear data array
Horizontal axis,Wavenumber [cm-1]
Vertical axis,%T
Start,649.893 cm-1
End,4000.6 cm-1
Data interval,0.964233 cm-1
Data points,3476    

[Measurement Information]
Model Name,FT/IR-4700typeA
Serial Number,D056761788

Accessory,ATR PRO ONE
Accessory S/N,C174761809
Incident angle,45 deg

Measurement Date,4/24/2024 2:07 PM

Light Source,Standard
Detector,TGS
Accumulation,32
Resolution,4 cm-1
Zero Filling,On
Apodization,Cosine
Gain,Auto (4)
Aperture,Auto (7.1 mm)
Scanning Speed,Auto (2 mm/sec)
Filter,Auto (30000 Hz)

