TITLE,
DATA TYPE,INFRARED SPECTRUM
ORIGIN,JASCO
OWNER,
DATE,24/04/24
TIME,14:43:13
SPECTROMETER/DATA SYSTEM,
LOCALE,1033
RESOLUTION,
DELTAX,0.964233
XUNITS,1/CM
YUNITS,TRANSMITTANCE
FIRSTX,  649.8934
LASTX, 4000.6047
NPOINTS,    3476
FIRSTY,    99.50674
MAXY,   101.66119
MINY,    79.67674
XYDATA
649.8934,99.5067
650.8576,99.5145
651.8218,99.4998
652.7861,99.4555
653.7503,99.3728
654.7145,99.2557
655.6788,99.1181
656.6430,98.9757
657.6072,98.8379
658.5715,98.705
659.5357,98.5747
660.4999,98.4506
661.4642,98.3484
662.4284,98.2916
663.3926,98.305
664.3569,98.4127
665.3211,98.6407
666.2853,99.0028
667.2496,99.443
668.2138,99.7648
669.1780,99.767
670.1423,99.5176
671.1065,99.2344
672.0707,99.044
673.0350,98.9751
673.9992,99.0169
674.9634,99.1443
675.9277,99.3221
676.8919,99.5112
677.8561,99.6787
678.8204,99.8038
679.7846,99.8778
680.7488,99.9012
681.7131,99.8851
682.6773,99.8487
683.6415,99.84
684.6058,99.8566
685.5700,99.8894
686.5342,99.9298
687.4985,99.9644
688.4627,99.9801
689.4269,99.9699
690.3912,99.9357
691.3554,99.8878
692.3196,99.8403
693.2839,99.8039
694.2481,99.7816
695.2123,99.768
696.1766,99.7515
697.1408,99.7215
698.1050,99.6747
699.0693,99.6176
700.0335,99.5619
700.9977,99.5176
701.9620,99.4891
702.9262,99.4748
703.8904,99.4703
704.8547,99.4702
705.8189,99.4699
706.7831,99.4661
707.7474,99.4572
708.7116,99.4449
709.6758,99.4342
710.6401,99.4328
711.6043,99.447
712.5685,99.4783
713.5328,99.5218
714.4970,99.5682
715.4612,99.6029
716.4255,99.6358
717.3897,99.663
718.3539,99.6905
719.3182,99.7225
720.2824,99.758
721.2466,99.7915
722.2109,99.8171
723.1751,99.8334
724.1393,99.8429
725.1036,99.8492
726.0678,99.8549
727.0320,99.8607
727.9963,99.8683
728.9605,99.8827
729.9247,99.9115
730.8890,99.9602
731.8532,100.026
732.8174,100.095
733.7817,100.147
734.7459,100.166
735.7101,100.148
736.6744,100.106
737.6386,100.064
738.6028,100.04
739.5671,100.044
740.5313,100.066
741.4955,100.088
742.4598,100.096
743.4240,100.082
744.3882,100.052
745.3525,100.017
746.3167,99.9834
747.2809,99.9558
748.2452,99.9345
749.2094,99.9217
750.1736,99.9222
751.1379,99.9396
752.1021,99.9706
753.0663,100.003
754.0306,100.022
754.9948,100.017
755.9590,99.9943
756.9233,99.9675
757.8875,99.953
758.8517,99.9574
759.8160,99.9733
760.7802,99.9852
761.7444,99.98
762.7087,99.9555
763.6729,99.921
764.6371,99.8903
765.6014,99.8742
766.5656,99.875
767.5298,99.8885
768.4941,99.9072
769.4583,99.9243
770.4225,99.9351
771.3868,99.9372
772.3510,99.9303
773.3152,99.9172
774.2795,99.9111
775.2437,99.9382
776.2079,99.971
777.1722,100.006
778.1364,100.034
779.1006,100.051
780.0649,100.056
781.0291,100.053
781.9933,100.051
782.9576,100.057
783.9218,100.073
784.8860,100.096
785.8503,100.123
786.8145,100.152
787.7787,100.182
788.7430,100.208
789.7072,100.225
790.6714,100.225
791.6357,100.207
792.5999,100.175
793.5641,100.143
794.5284,100.123
795.4926,100.123
796.4568,100.143
797.4211,100.172
798.3853,100.2
799.3495,100.216
800.3138,100.214
801.2780,100.194
802.2422,100.16
803.2065,100.12
804.1707,100.083
805.1349,100.059
806.0992,100.055
807.0634,100.068
808.0276,100.091
808.9919,100.109
809.9561,100.112
810.9203,100.097
811.8846,100.071
812.8488,100.044
813.8130,100.024
814.7773,100.014
815.7415,100.006
816.7057,99.9954
817.6700,99.9773
818.6342,99.9536
819.5984,99.9293
820.5627,99.9088
821.5269,99.8943
822.4911,99.8851
823.4554,99.8795
824.4196,99.875
825.3839,99.8685
826.3481,99.8567
827.3123,99.8372
828.2766,99.8116
829.2408,99.7852
830.2050,99.7657
831.1693,99.7585
832.1335,99.763
833.0977,99.7731
834.0620,99.7802
835.0262,99.7787
835.9904,99.7687
836.9547,99.7552
837.9189,99.745
838.8831,99.743
839.8474,99.7507
840.8116,99.7666
841.7758,99.7872
842.7401,99.8088
843.7043,99.8281
844.6685,99.8427
845.6328,99.8513
846.5970,99.8534
847.5612,99.8488
848.5255,99.8373
849.4897,99.82
850.4539,99.7994
851.4182,99.7802
852.3824,99.7666
853.3466,99.7601
854.3109,99.7575
855.2751,99.7527
856.2393,99.7401
857.2036,99.7183
858.1678,99.6906
859.1320,99.6626
860.0963,99.638
861.0605,99.6161
862.0247,99.5923
862.9890,99.5614
863.9532,99.52
864.9174,99.4677
865.8817,99.406
866.8459,99.3368
867.8101,99.2614
868.7744,99.1808
869.7386,99.0961
870.7028,99.009
871.6671,98.9221
872.6313,98.8387
873.5955,98.7561
874.5598,98.6793
875.5240,98.611
876.4882,98.5484
877.4525,98.4869
878.4167,98.422
879.3809,98.3505
880.3452,98.2707
881.3094,98.1819
882.2736,98.0827
883.2379,97.972
884.2021,97.85
885.1663,97.7206
886.1306,97.59
887.0948,97.4649
888.0590,97.3483
889.0233,97.2383
889.9875,97.1294
890.9517,97.0161
891.9160,96.8973
892.8802,96.7781
893.8444,96.6682
894.8087,96.5785
895.7729,96.5173
896.7371,96.4886
897.7014,96.4919
898.6656,96.5234
899.6298,96.577
900.5941,96.6455
901.5583,96.7212
902.5225,96.7966
903.4868,96.8659
904.4510,96.9257
905.4152,96.9752
906.3795,97.0154
907.3437,97.0465
908.3079,97.0672
909.2722,97.0747
910.2364,97.0672
911.2006,97.0454
912.1649,97.013
913.1291,96.975
914.0933,96.9343
915.0576,96.891
916.0218,96.8426
916.9860,96.7871
917.9503,96.7252
918.9145,96.6599
919.8787,96.5954
920.8430,96.5342
921.8072,96.4769
922.7714,96.4222
923.7357,96.3685
924.6999,96.3143
925.6641,96.2574
926.6284,96.1951
927.5926,96.1255
928.5568,96.0494
929.5211,95.9712
930.4853,95.897
931.4495,95.8313
932.4138,95.773
933.3780,95.7156
934.3422,95.6503
935.3065,95.5706
936.2707,95.4762
937.2349,95.3714
938.1992,95.2618
939.1634,95.15
940.1276,95.0347
941.0919,94.9127
942.0561,94.7823
943.0203,94.6448
943.9846,94.503
944.9488,94.3575
945.9130,94.2048
946.8773,94.0386
947.8415,93.8537
948.8057,93.6498
949.7700,93.4327
950.7342,93.211
951.6984,92.9921
952.6627,92.7779
953.6269,92.5651
954.5911,92.3479
955.5554,92.1222
956.5196,91.8884
957.4838,91.6513
958.4481,91.4169
959.4123,91.1895
960.3765,90.9697
961.3408,90.7538
962.3050,90.5368
963.2692,90.3147
964.2335,90.0866
965.1977,89.8547
966.1619,89.6225
967.1262,89.3919
968.0904,89.162
969.0546,88.9291
970.0189,88.6889
970.9831,88.4384
971.9473,88.1772
972.9116,87.9065
973.8758,87.6275
974.8400,87.3399
975.8043,87.0418
976.7685,86.7315
977.7327,86.4089
978.6970,86.0773
979.6612,85.7429
980.6254,85.4141
981.5897,85.0991
982.5539,84.8051
983.5181,84.5367
984.4824,84.2963
985.4466,84.0841
986.4108,83.8993
987.3751,83.7401
988.3393,83.6042
989.3035,83.4887
990.2678,83.3894
991.2320,83.3023
992.1962,83.2237
993.1605,83.152
994.1247,83.087
995.0889,83.0294
996.0532,82.9784
997.0174,82.9311
997.9816,82.8828
998.9459,82.8288
999.9101,82.7662
1000.8743,82.6944
1001.8386,82.6136
1002.8028,82.5232
1003.7670,82.4213
1004.7313,82.3053
1005.6955,82.1743
1006.6597,82.0311
1007.6240,81.8808
1008.5882,81.7285
1009.5524,81.5758
1010.5167,81.4193
1011.4809,81.2532
1012.4451,81.0731
1013.4094,80.8801
1014.3736,80.6827
1015.3378,80.4936
1016.3021,80.3244
1017.2663,80.1812
1018.2305,80.0619
1019.1948,79.9596
1020.1590,79.8681
1021.1232,79.7866
1022.0875,79.7214
1023.0517,79.6825
1024.0160,79.6767
1024.9802,79.7025
1025.9445,79.7475
1026.9087,79.7934
1027.8729,79.8246
1028.8372,79.8369
1029.8014,79.8408
1030.7656,79.8564
1031.7299,79.9055
1032.6941,80.0022
1033.6583,80.1486
1034.6226,80.3356
1035.5868,80.5478
1036.5510,80.7696
1037.5153,80.9892
1038.4795,81.2001
1039.4437,81.3991
1040.4080,81.5842
1041.3722,81.754
1042.3364,81.9085
1043.3007,82.0502
1044.2649,82.1852
1045.2291,82.3216
1046.1934,82.4673
1047.1576,82.6264
1048.1218,82.7983
1049.0861,82.979
1050.0503,83.1649
1051.0145,83.357
1051.9788,83.5629
1052.9430,83.7937
1053.9072,84.0579
1054.8715,84.3542
1055.8357,84.6694
1056.7999,84.9827
1057.7642,85.2761
1058.7284,85.5463
1059.6926,85.808
1060.6569,86.0878
1061.6211,86.4096
1062.5853,86.7812
1063.5496,87.1877
1064.5138,87.5963
1065.4780,87.9703
1066.4423,88.2865
1067.4065,88.5446
1068.3707,88.7641
1069.3350,88.9705
1070.2992,89.1832
1071.2634,89.4092
1072.2277,89.6454
1073.1919,89.8846
1074.1561,90.1199
1075.1204,90.3474
1076.0846,90.5646
1077.0488,90.7689
1078.0131,90.9571
1078.9773,91.126
1079.9415,91.2741
1080.9058,91.4028
1081.8700,91.5153
1082.8342,91.6161
1083.7985,91.7086
1084.7627,91.7937
1085.7269,91.8691
1086.6912,91.9309
1087.6554,91.9761
1088.6196,92.0059
1089.5839,92.0262
1090.5481,92.0466
1091.5123,92.076
1092.4766,92.119
1093.4408,92.1743
1094.4050,92.2362
1095.3693,92.2985
1096.3335,92.357
1097.2977,92.4109
1098.2620,92.461
1099.2262,92.5075
1100.1904,92.5489
1101.1547,92.5827
1102.1189,92.6071
1103.0831,92.6232
1104.0474,92.6351
1105.0116,92.6489
1105.9758,92.6695
1106.9401,92.6992
1107.9043,92.737
1108.8685,92.7811
1109.8328,92.8303
1110.7970,92.8858
1111.7612,92.9503
1112.7255,93.0258
1113.6897,93.1119
1114.6539,93.2049
1115.6182,93.2992
1116.5824,93.3899
1117.5466,93.4744
1118.5109,93.5543
1119.4751,93.6338
1120.4393,93.7194
1121.4036,93.8179
1122.3678,93.9354
1123.3320,94.0759
1124.2963,94.2406
1125.2605,94.4277
1126.2247,94.6333
1127.1890,94.8527
1128.1532,95.0826
1129.1174,95.3214
1130.0817,95.5684
1131.0459,95.8217
1132.0101,96.0767
1132.9744,96.3261
1133.9386,96.5611
1134.9028,96.7739
1135.8671,96.9592
1136.8313,97.1145
1137.7955,97.2392
1138.7598,97.3334
1139.7240,97.3969
1140.6882,97.4296
1141.6525,97.4317
1142.6167,97.405
1143.5809,97.3529
1144.5452,97.2804
1145.5094,97.1932
1146.4736,97.0965
1147.4379,96.9939
1148.4021,96.8871
1149.3663,96.7771
1150.3306,96.6659
1151.2948,96.5575
1152.2590,96.4584
1153.2233,96.3755
1154.1875,96.3142
1155.1517,96.2764
1156.1160,96.2615
1157.0802,96.2679
1158.0444,96.2956
1159.0087,96.3472
1159.9729,96.4266
1160.9371,96.5373
1161.9014,96.6802
1162.8656,96.8538
1163.8298,97.054
1164.7941,97.2759
1165.7583,97.5138
1166.7225,97.7619
1167.6868,98.0143
1168.6510,98.2656
1169.6152,98.5109
1170.5795,98.746
1171.5437,98.9666
1172.5079,99.1681
1173.4722,99.3458
1174.4364,99.4964
1175.4006,99.6193
1176.3649,99.7176
1177.3291,99.797
1178.2933,99.8639
1179.2576,99.9225
1180.2218,99.9734
1181.1860,100.014
1182.1503,100.039
1183.1145,100.046
1184.0787,100.046
1185.0430,100.03
1186.0072,100.001
1186.9714,99.9656
1187.9357,99.9251
1188.8999,99.8793
1189.8641,99.8244
1190.8284,99.7557
1191.7926,99.6698
1192.7568,99.5664
1193.7211,99.4487
1194.6853,99.3218
1195.6495,99.1912
1196.6138,99.0608
1197.5780,98.9318
1198.5422,98.8032
1199.5065,98.6501
1200.4707,98.5164
1201.4349,98.3754
1202.3992,98.2268
1203.3634,98.0726
1204.3276,97.9163
1205.2919,97.7614
1206.2561,97.6106
1207.2203,97.4644
1208.1846,97.3213
1209.1488,97.1782
1210.1130,97.0318
1211.0773,96.88
1212.0415,96.722
1213.0057,96.5593
1213.9700,96.3946
1214.9342,96.2314
1215.8984,96.0728
1216.8627,95.9203
1217.8269,95.7739
1218.7911,95.6333
1219.7554,95.4981
1220.7196,95.3693
1221.6838,95.2482
1222.6481,95.1368
1223.6123,95.0359
1224.5765,94.945
1225.5408,94.862
1226.5050,94.7845
1227.4692,94.7108
1228.4335,94.6407
1229.3977,94.576
1230.3619,94.5192
1231.3262,94.472
1232.2904,94.4344
1233.2546,94.4049
1234.2189,94.382
1235.1831,94.3665
1236.1473,94.362
1237.1116,94.3736
1238.0758,94.4038
1239.0400,94.4498
1240.0043,94.5033
1240.9685,94.5542
1241.9327,94.5967
1242.8970,94.6332
1243.8612,94.6737
1244.8254,94.7308
1245.7897,94.8128
1246.7539,94.9189
1247.7181,95.0399
1248.6824,95.163
1249.6466,95.2772
1250.6108,95.3775
1251.5751,95.4646
1252.5393,95.5428
1253.5035,95.6165
1254.4678,95.6891
1255.4320,95.7626
1256.3962,95.8385
1257.3605,95.9182
1258.3247,96.0026
1259.2889,96.0918
1260.2532,96.1843
1261.2174,96.2777
1262.1816,96.3699
1263.1459,96.4592
1264.1101,96.5453
1265.0743,96.6285
1266.0386,96.71
1267.0028,96.7922
1267.9670,96.8778
1268.9313,96.9702
1269.8955,97.0719
1270.8597,97.1837
1271.8240,97.3041
1272.7882,97.4295
1273.7524,97.5556
1274.7167,97.6788
1275.6809,97.7962
1276.6451,97.9063
1277.6094,98.0083
1278.5736,98.1019
1279.5378,98.187
1280.5021,98.2637
1281.4663,98.3327
1282.4305,98.3954
1283.3948,98.4537
1284.3590,98.509
1285.3232,98.5623
1286.2875,98.6127
1287.2517,98.6574
1288.2159,98.6931
1289.1802,98.7173
1290.1444,98.7296
1291.1086,98.7319
1292.0729,98.7266
1293.0371,98.7153
1294.0013,98.6976
1294.9656,98.6715
1295.9298,98.6353
1296.8940,98.5883
1297.8583,98.5311
1298.8225,98.4655
1299.7867,98.393
1300.7510,98.3144
1301.7152,98.231
1302.6794,98.1438
1303.6437,98.0544
1304.6079,97.9643
1305.5721,97.8744
1306.5364,97.7846
1307.5006,97.6944
1308.4648,97.6033
1309.4291,97.511
1310.3933,97.4177
1311.3575,97.3246
1312.3218,97.2329
1313.2860,97.1446
1314.2502,97.0616
1315.2145,96.986
1316.1787,96.9202
1317.1429,96.8662
1318.1072,96.8256
1319.0714,96.7983
1320.0356,96.7824
1320.9999,96.774
1321.9641,96.7694
1322.9283,96.7654
1323.8926,96.7605
1324.8568,96.7547
1325.8210,96.7492
1326.7853,96.746
1327.7495,96.7477
1328.7137,96.758
1329.6780,96.7798
1330.6422,96.8149
1331.6064,96.8625
1332.5707,96.9189
1333.5349,96.98
1334.4991,97.0439
1335.4634,97.1126
1336.4276,97.1919
1337.3918,97.2866
1338.3561,97.3947
1339.3203,97.5051
1340.2845,97.6045
1341.2488,97.687
1342.2130,97.7546
1343.1772,97.8126
1344.1415,97.865
1345.1057,97.9122
1346.0699,97.9523
1347.0342,97.9819
1347.9984,97.9983
1348.9626,98.0011
1349.9269,97.9915
1350.8911,97.9714
1351.8553,97.9427
1352.8196,97.9066
1353.7838,97.8642
1354.7480,97.8157
1355.7123,97.7613
1356.6765,97.7014
1357.6407,97.6371
1358.6050,97.5714
1359.5692,97.5092
1360.5334,97.4562
1361.4977,97.4151
1362.4619,97.3845
1363.4261,97.3612
1364.3904,97.3437
1365.3546,97.3314
1366.3188,97.3236
1367.2831,97.3199
1368.2473,97.32
1369.2115,97.3254
1370.1758,97.3403
1371.1400,97.3724
1372.1042,97.4311
1373.0685,97.5219
1374.0327,97.6392
1374.9969,97.7683
1375.9612,97.8957
1376.9254,98.0196
1377.8896,98.1478
1378.8539,98.2876
1379.8181,98.4384
1380.7823,98.589
1381.7466,98.7245
1382.7108,98.8359
1383.6750,98.927
1384.6393,99.0117
1385.6035,99.1051
1386.5677,99.2127
1387.5320,99.3263
1388.4962,99.4337
1389.4604,99.5296
1390.4247,99.6153
1391.3889,99.6938
1392.3531,99.7658
1393.3174,99.8266
1394.2816,99.8663
1395.2458,99.8771
1396.2101,99.8646
1397.1743,99.8319
1398.1385,99.8063
1399.1028,99.7947
1400.0670,99.7915
1401.0313,99.7893
1401.9955,99.7841
1402.9597,99.7753
1403.9240,99.7613
1404.8882,99.7369
1405.8524,99.6942
1406.8167,99.6286
1407.7809,99.5409
1408.7451,99.4342
1409.7094,99.3113
1410.6736,99.1748
1411.6378,99.0281
1412.6021,98.8755
1413.5663,98.7211
1414.5305,98.5673
1415.4948,98.4181
1416.4590,98.2798
1417.4232,98.1582
1418.3875,98.0528
1419.3517,97.962
1420.3159,97.8915
1421.2802,97.8484
1422.2444,97.834
1423.2086,97.8443
1424.1729,97.8724
1425.1371,97.9105
1426.1013,97.9544
1427.0656,98.0071
1428.0298,98.0769
1428.9940,98.1676
1429.9583,98.2694
1430.9225,98.3619
1431.8867,98.4289
1432.8510,98.4702
1433.8152,98.503
1434.7794,98.5513
1435.7437,98.6265
1436.7079,98.712
1437.6721,98.7785
1438.6364,98.8141
1439.6006,98.8239
1440.5648,98.8136
1441.5291,98.785
1442.4933,98.7388
1443.4575,98.6771
1444.4218,98.6039
1445.3860,98.5246
1446.3502,98.4447
1447.3145,98.3677
1448.2787,98.295
1449.2429,98.2263
1450.2072,98.1601
1451.1714,98.0931
1452.1356,98.0217
1453.0999,97.9495
1454.0641,97.8952
1455.0283,97.8945
1455.9926,97.9691
1456.9568,98.0669
1457.9210,98.1016
1458.8853,98.0813
1459.8495,98.0563
1460.8137,98.0439
1461.7780,98.0492
1462.7422,98.0881
1463.7064,98.1805
1464.6707,98.3228
1465.6349,98.4777
1466.5991,98.6047
1467.5634,98.6906
1468.5276,98.748
1469.4918,98.8063
1470.4561,98.9074
1471.4203,99.0899
1472.3845,99.3479
1473.3488,99.6072
1474.3130,99.7959
1475.2772,99.9151
1476.2415,100.001
1477.2057,100.074
1478.1699,100.141
1479.1342,100.198
1480.0984,100.243
1481.0626,100.271
1482.0269,100.277
1482.9911,100.258
1483.9553,100.215
1484.9196,100.155
1485.8838,100.09
1486.8480,100.036
1487.8123,99.9977
1488.7765,99.9541
1489.7407,99.8785
1490.7050,99.7728
1491.6692,99.6575
1492.6334,99.5414
1493.5977,99.4217
1494.5619,99.2965
1495.5261,99.1671
1496.4904,99.0324
1497.4546,98.8875
1498.4188,98.7369
1499.3831,98.595
1500.3473,98.4662
1501.3115,98.3407
1502.2758,98.2103
1503.2400,98.0845
1504.2042,98.0042
1505.1685,98.0454
1506.1327,98.2637
1507.0969,98.5519
1508.0612,98.7109
1509.0254,98.7472
1509.9896,98.7614
1510.9539,98.7903
1511.9181,98.8358
1512.8823,98.9014
1513.8466,98.9956
1514.8108,99.1225
1515.7750,99.2706
1516.7393,99.4162
1517.7035,99.541
1518.6677,99.6476
1519.6320,99.7546
1520.5962,99.8755
1521.5604,100.002
1522.5247,100.112
1523.4889,100.194
1524.4531,100.25
1525.4174,100.286
1526.3816,100.308
1527.3458,100.314
1528.3101,100.304
1529.2743,100.28
1530.2385,100.252
1531.2028,100.232
1532.1670,100.227
1533.1312,100.226
1534.0955,100.204
1535.0597,100.151
1536.0239,100.073
1536.9882,99.9956
1537.9524,99.9688
1538.9166,100.061
1539.8809,100.289
1540.8451,100.5
1541.8093,100.522
1542.7736,100.417
1543.7378,100.303
1544.7020,100.22
1545.6663,100.16
1546.6305,100.112
1547.5947,100.069
1548.5590,100.027
1549.5232,99.9857
1550.4874,99.9448
1551.4517,99.9012
1552.4159,99.8617
1553.3801,99.8131
1554.3444,99.762
1555.3086,99.7336
1556.2728,99.7777
1557.2371,99.9367
1558.2013,100.126
1559.1655,100.15
1560.1298,100.03
1561.0940,99.9159
1562.0582,99.8473
1563.0225,99.7991
1563.9867,99.7496
1564.9509,99.6935
1565.9152,99.6385
1566.8794,99.5952
1567.8436,99.5657
1568.8079,99.536
1569.7721,99.4881
1570.7363,99.4171
1571.7006,99.3303
1572.6648,99.2363
1573.6290,99.1444
1574.5933,99.0647
1575.5575,98.9972
1576.5217,98.9256
1577.4860,98.8387
1578.4502,98.7418
1579.4144,98.6384
1580.3787,98.5238
1581.3429,98.3951
1582.3071,98.2556
1583.2714,98.1126
1584.2356,97.972
1585.1998,97.8359
1586.1641,97.7039
1587.1283,97.577
1588.0925,97.4592
1589.0568,97.3568
1590.0210,97.2754
1590.9852,97.2183
1591.9495,97.1875
1592.9137,97.1833
1593.8779,97.2035
1594.8422,97.2425
1595.8064,97.2916
1596.7706,97.3438
1597.7349,97.3961
1598.6991,97.4496
1599.6633,97.5072
1600.6276,97.5696
1601.5918,97.634
1602.5560,97.6948
1603.5203,97.7466
1604.4845,97.7874
1605.4487,97.8198
1606.4130,97.8494
1607.3772,97.8803
1608.3414,97.9113
1609.3057,97.9351
1610.2699,97.9422
1611.2341,97.9281
1612.1984,97.8957
1613.1626,97.8575
1614.1268,97.8349
1615.0911,97.8486
1616.0553,97.8955
1617.0195,97.9442
1617.9838,97.9693
1618.9480,97.9727
1619.9122,97.9686
1620.8765,97.9712
1621.8407,97.991
1622.8049,98.0265
1623.7692,98.0619
1624.7334,98.0807
1625.6976,98.0816
1626.6619,98.0757
1627.6261,98.0726
1628.5903,98.0717
1629.5546,98.0632
1630.5188,98.0362
1631.4830,97.9878
1632.4473,97.9296
1633.4115,97.8902
1634.3757,97.9019
1635.3400,97.963
1636.3042,98.0217
1637.2684,98.0421
1638.2327,98.0374
1639.1969,98.024
1640.1611,98.0022
1641.1254,97.9669
1642.0896,97.918
1643.0538,97.8667
1644.0181,97.8378
1644.9823,97.8576
1645.9465,97.9203
1646.9108,97.9711
1647.8750,97.9623
1648.8392,97.9001
1649.8035,97.821
1650.7677,97.7778
1651.7319,97.8383
1652.6962,98.0193
1653.6604,98.1947
1654.6246,98.256
1655.5889,98.2523
1656.5531,98.2385
1657.5173,98.2229
1658.4816,98.2064
1659.4458,98.2
1660.4100,98.2204
1661.3743,98.2724
1662.3385,98.3374
1663.3027,98.3873
1664.2670,98.4092
1665.2312,98.41
1666.1954,98.4086
1667.1597,98.4308
1668.1239,98.4992
1669.0881,98.6091
1670.0524,98.72
1671.0166,98.7918
1671.9808,98.8216
1672.9451,98.8329
1673.9093,98.8496
1674.8735,98.8824
1675.8378,98.9247
1676.8020,98.9607
1677.7662,98.9778
1678.7305,98.9714
1679.6947,98.9469
1680.6589,98.9234
1681.6232,98.9344
1682.5874,99.0074
1683.5516,99.1171
1684.5159,99.192
1685.4801,99.2093
1686.4443,99.202
1687.4086,99.1932
1688.3728,99.1831
1689.3370,99.1649
1690.3013,99.1335
1691.2655,99.0879
1692.2297,99.0319
1693.1940,98.9738
1694.1582,98.9252
1695.1224,98.8968
1696.0867,98.8929
1697.0509,98.9066
1698.0151,98.9207
1698.9794,98.9187
1699.9436,98.8979
1700.9078,98.8698
1701.8721,98.8454
1702.8363,98.8252
1703.8005,98.8024
1704.7648,98.7689
1705.7290,98.7188
1706.6932,98.651
1707.6575,98.5689
1708.6217,98.4767
1709.5859,98.3744
1710.5502,98.2596
1711.5144,98.1319
1712.4786,97.9974
1713.4429,97.8699
1714.4071,97.7669
1715.3713,97.6954
1716.3356,97.6311
1717.2998,97.5345
1718.2640,97.406
1719.2283,97.2795
1720.1925,97.17
1721.1567,97.0701
1722.1210,96.9688
1723.0852,96.8617
1724.0494,96.7506
1725.0137,96.6395
1725.9779,96.5317
1726.9421,96.4271
1727.9064,96.3242
1728.8706,96.2232
1729.8348,96.1311
1730.7991,96.0649
1731.7633,96.0475
1732.7275,96.0875
1733.6918,96.1584
1734.6560,96.2204
1735.6202,96.2612
1736.5845,96.2917
1737.5487,96.3262
1738.5129,96.3761
1739.4772,96.4473
1740.4414,96.5359
1741.4056,96.6285
1742.3699,96.7133
1743.3341,96.7877
1744.2983,96.8568
1745.2626,96.928
1746.2268,97.0109
1747.1910,97.1182
1748.1553,97.2607
1749.1195,97.4332
1750.0837,97.6083
1751.0480,97.7574
1752.0122,97.8734
1752.9764,97.9687
1753.9407,98.0605
1754.9049,98.1613
1755.8691,98.2742
1756.8334,98.3922
1757.7976,98.5055
1758.7618,98.6123
1759.7261,98.7208
1760.6903,98.8403
1761.6545,98.968
1762.6188,99.0877
1763.5830,99.1827
1764.5472,99.2487
1765.5115,99.2939
1766.4757,99.3322
1767.4399,99.3773
1768.4042,99.4394
1769.3684,99.5244
1770.3326,99.631
1771.2969,99.7458
1772.2611,99.8433
1773.2253,99.9042
1774.1896,99.9298
1775.1538,99.9343
1776.1180,99.9315
1777.0823,99.9311
1778.0465,99.9394
1779.0107,99.9573
1779.9750,99.9796
1780.9392,100.003
1781.9034,100.022
1782.8677,100.037
1783.8319,100.052
1784.7961,100.066
1785.7604,100.073
1786.7246,100.067
1787.6888,100.048
1788.6531,100.025
1789.6173,100.014
1790.5815,100.029
1791.5458,100.073
1792.5100,100.123
1793.4742,100.155
1794.4385,100.162
1795.4027,100.153
1796.3669,100.137
1797.3312,100.126
1798.2954,100.125
1799.2596,100.139
1800.2239,100.163
1801.1881,100.186
1802.1523,100.2
1803.1166,100.204
1804.0808,100.197
1805.0450,100.184
1806.0093,100.168
1806.9735,100.154
1807.9377,100.148
1808.9020,100.154
1809.8662,100.17
1810.8304,100.191
1811.7947,100.209
1812.7589,100.218
1813.7231,100.22
1814.6874,100.216
1815.6516,100.212
1816.6158,100.208
1817.5801,100.204
1818.5443,100.197
1819.5085,100.185
1820.4728,100.169
1821.4370,100.154
1822.4012,100.144
1823.3655,100.141
1824.3297,100.143
1825.2939,100.146
1826.2582,100.149
1827.2224,100.154
1828.1866,100.167
1829.1509,100.188
1830.1151,100.208
1831.0793,100.219
1832.0436,100.219
1833.0078,100.213
1833.9720,100.205
1834.9363,100.202
1835.9005,100.202
1836.8647,100.203
1837.8290,100.195
1838.7932,100.173
1839.7574,100.141
1840.7217,100.108
1841.6859,100.09
1842.6501,100.1
1843.6144,100.135
1844.5786,100.179
1845.5428,100.211
1846.5071,100.227
1847.4713,100.229
1848.4355,100.226
1849.3998,100.221
1850.3640,100.217
1851.3282,100.214
1852.2925,100.211
1853.2567,100.206
1854.2209,100.201
1855.1852,100.195
1856.1494,100.189
1857.1136,100.182
1858.0779,100.176
1859.0421,100.171
1860.0063,100.168
1860.9706,100.165
1861.9348,100.16
1862.8990,100.15
1863.8633,100.135
1864.8275,100.121
1865.7917,100.117
1866.7560,100.132
1867.7202,100.167
1868.6844,100.208
1869.6487,100.238
1870.6129,100.249
1871.5771,100.244
1872.5414,100.231
1873.5056,100.216
1874.4698,100.204
1875.4341,100.197
1876.3983,100.193
1877.3625,100.191
1878.3268,100.189
1879.2910,100.188
1880.2552,100.19
1881.2195,100.194
1882.1837,100.197
1883.1479,100.196
1884.1122,100.189
1885.0764,100.176
1886.0406,100.164
1887.0049,100.159
1887.9691,100.164
1888.9333,100.178
1889.8976,100.192
1890.8618,100.199
1891.8260,100.199
1892.7903,100.195
1893.7545,100.193
1894.7188,100.197
1895.6830,100.204
1896.6472,100.212
1897.6115,100.215
1898.5757,100.214
1899.5399,100.209
1900.5042,100.204
1901.4684,100.201
1902.4326,100.198
1903.3969,100.195
1904.3611,100.192
1905.3253,100.189
1906.2896,100.189
1907.2538,100.195
1908.2180,100.205
1909.1823,100.216
1910.1465,100.224
1911.1107,100.222
1912.0750,100.212
1913.0392,100.196
1914.0034,100.18
1914.9677,100.173
1915.9319,100.175
1916.8961,100.186
1917.8604,100.196
1918.8246,100.202
1919.7888,100.202
1920.7531,100.202
1921.7173,100.206
1922.6815,100.214
1923.6458,100.223
1924.6100,100.227
1925.5742,100.223
1926.5385,100.213
1927.5027,100.202
1928.4669,100.194
1929.4312,100.192
1930.3954,100.192
1931.3596,100.193
1932.3239,100.193
1933.2881,100.192
1934.2523,100.189
1935.2166,100.185
1936.1808,100.179
1937.1450,100.171
1938.1093,100.161
1939.0735,100.154
1940.0377,100.153
1941.0020,100.16
1941.9662,100.172
1942.9304,100.184
1943.8947,100.191
1944.8589,100.193
1945.8231,100.192
1946.7874,100.189
1947.7516,100.185
1948.7158,100.18
1949.6801,100.172
1950.6443,100.164
1951.6085,100.156
1952.5728,100.153
1953.5370,100.155
1954.5012,100.16
1955.4655,100.165
1956.4297,100.166
1957.3939,100.165
1958.3582,100.163
1959.3224,100.161
1960.2866,100.161
1961.2509,100.16
1962.2151,100.157
1963.1793,100.152
1964.1436,100.146
1965.1078,100.144
1966.0720,100.145
1967.0363,100.148
1968.0005,100.15
1968.9647,100.149
1969.9290,100.147
1970.8932,100.144
1971.8574,100.145
1972.8217,100.147
1973.7859,100.15
1974.7501,100.151
1975.7144,100.149
1976.6786,100.147
1977.6428,100.144
1978.6071,100.144
1979.5713,100.145
1980.5355,100.146
1981.4998,100.145
1982.4640,100.143
1983.4282,100.141
1984.3925,100.14
1985.3567,100.14
1986.3209,100.14
1987.2852,100.138
1988.2494,100.134
1989.2136,100.13
1990.1779,100.128
1991.1421,100.132
1992.1063,100.138
1993.0706,100.145
1994.0348,100.147
1994.9990,100.145
1995.9633,100.139
1996.9275,100.132
1997.8917,100.128
1998.8560,100.126
1999.8202,100.128
2000.7844,100.13
2001.7487,100.13
2002.7129,100.127
2003.6771,100.122
2004.6414,100.115
2005.6056,100.109
2006.5698,100.105
2007.5341,100.102
2008.4983,100.1
2009.4625,100.097
2010.4268,100.092
2011.3910,100.087
2012.3552,100.08
2013.3195,100.076
2014.2837,100.076
2015.2479,100.08
2016.2122,100.086
2017.1764,100.091
2018.1406,100.093
2019.1049,100.091
2020.0691,100.086
2021.0333,100.081
2021.9976,100.078
2022.9618,100.078
2023.9260,100.079
2024.8903,100.078
2025.8545,100.075
2026.8187,100.069
2027.7830,100.06
2028.7472,100.053
2029.7114,100.049
2030.6757,100.048
2031.6399,100.051
2032.6041,100.056
2033.5684,100.061
2034.5326,100.065
2035.4968,100.067
2036.4611,100.066
2037.4253,100.065
2038.3895,100.062
2039.3538,100.06
2040.3180,100.058
2041.2822,100.057
2042.2465,100.056
2043.2107,100.055
2044.1749,100.054
2045.1392,100.053
2046.1034,100.05
2047.0676,100.046
2048.0320,100.041
2048.9961,100.037
2049.9604,100.034
2050.9246,100.034
2051.8889,100.036
2052.8530,100.038
2053.8174,100.038
2054.7815,100.036
2055.7458,100.031
2056.7100,100.024
2057.6743,100.018
2058.6384,100.016
2059.6028,100.018
2060.5669,100.023
2061.5313,100.032
2062.4954,100.039
2063.4597,100.044
2064.4238,100.045
2065.3882,100.042
2066.3523,100.036
2067.3167,100.028
2068.2808,100.021
2069.2451,100.016
2070.2092,100.012
2071.1736,100.012
2072.1377,100.013
2073.1021,100.016
2074.0662,100.019
2075.0305,100.023
2075.9946,100.025
2076.9590,100.026
2077.9231,100.022
2078.8875,100.015
2079.8516,100.006
2080.8159,99.9966
2081.7800,99.9905
2082.7444,99.9897
2083.7085,99.9945
2084.6729,100.003
2085.6370,100.011
2086.6013,100.018
2087.5654,100.021
2088.5298,100.022
2089.4939,100.021
2090.4583,100.019
2091.4224,100.017
2092.3867,100.015
2093.3508,100.013
2094.3152,100.009
2095.2793,100.005
2096.2437,99.9989
2097.2078,99.9924
2098.1721,99.9865
2099.1362,99.9829
2100.1006,99.9831
2101.0647,99.9871
2102.0291,99.9938
2102.9932,100.001
2103.9575,100.005
2104.9216,100.005
2105.8860,100.002
2106.8501,99.9972
2107.8145,99.9935
2108.7786,99.9923
2109.7429,99.9932
2110.7070,99.9952
2111.6714,99.9966
2112.6355,99.9968
2113.5999,99.9958
2114.5640,99.994
2115.5283,99.9916
2116.4924,99.9888
2117.4568,99.9858
2118.4209,99.9831
2119.3853,99.9812
2120.3494,99.9802
2121.3137,99.9796
2122.2778,99.9784
2123.2422,99.9756
2124.2063,99.9715
2125.1707,99.9672
2126.1348,99.9649
2127.0991,99.9659
2128.0632,99.97
2129.0276,99.9754
2129.9917,99.9798
2130.9561,99.9817
2131.9202,99.9812
2132.8845,99.9801
2133.8486,99.9802
2134.8130,99.9823
2135.7771,99.9854
2136.7415,99.9875
2137.7056,99.9869
2138.6699,99.9832
2139.6340,99.9775
2140.5984,99.9721
2141.5625,99.9687
2142.5269,99.968
2143.4910,99.9696
2144.4553,99.9727
2145.4194,99.9763
2146.3838,99.9801
2147.3479,99.9838
2148.3123,99.9871
2149.2764,99.9897
2150.2407,99.9912
2151.2048,99.9916
2152.1692,99.9913
2153.1333,99.9909
2154.0977,99.9908
2155.0618,99.9911
2156.0261,99.9916
2156.9902,99.9919
2157.9546,99.9917
2158.9187,99.9914
2159.8831,99.9917
2160.8472,99.9931
2161.8115,99.9962
2162.7756,100.001
2163.7400,100.006
2164.7041,100.011
2165.6685,100.014
2166.6326,100.015
2167.5969,100.015
2168.5610,100.015
2169.5254,100.014
2170.4895,100.013
2171.4539,100.013
2172.4180,100.013
2173.3823,100.014
2174.3464,100.014
2175.3108,100.015
2176.2749,100.016
2177.2393,100.018
2178.2034,100.022
2179.1677,100.026
2180.1318,100.032
2181.0962,100.036
2182.0603,100.039
2183.0247,100.041
2183.9888,100.042
2184.9531,100.042
2185.9172,100.04
2186.8816,100.039
2187.8457,100.037
2188.8101,100.036
2189.7742,100.037
2190.7385,100.041
2191.7026,100.046
2192.6670,100.052
2193.6311,100.057
2194.5955,100.06
2195.5596,100.062
2196.5239,100.063
2197.4880,100.064
2198.4524,100.065
2199.4165,100.067
2200.3809,100.069
2201.3450,100.071
2202.3093,100.071
2203.2734,100.071
2204.2378,100.07
2205.2019,100.068
2206.1663,100.066
2207.1304,100.064
2208.0947,100.062
2209.0588,100.062
2210.0232,100.065
2210.9873,100.069
2211.9517,100.073
2212.9158,100.075
2213.8801,100.074
2214.8442,100.071
2215.8086,100.067
2216.7727,100.066
2217.7371,100.068
2218.7012,100.073
2219.6655,100.079
2220.6296,100.084
2221.5940,100.085
2222.5581,100.081
2223.5225,100.075
2224.4866,100.067
2225.4509,100.06
2226.4150,100.056
2227.3794,100.053
2228.3435,100.052
2229.3079,100.05
2230.2720,100.049
2231.2363,100.048
2232.2004,100.048
2233.1648,100.051
2234.1289,100.055
2235.0933,100.059
2236.0574,100.061
2237.0217,100.059
2237.9858,100.054
2238.9502,100.048
2239.9143,100.041
2240.8787,100.036
2241.8428,100.033
2242.8071,100.031
2243.7712,100.03
2244.7356,100.03
2245.6997,100.031
2246.6641,100.034
2247.6282,100.038
2248.5925,100.042
2249.5566,100.043
2250.5210,100.039
2251.4851,100.032
2252.4495,100.021
2253.4136,100.01
2254.3779,100.001
2255.3420,99.9937
2256.3064,99.9891
2257.2705,99.9858
2258.2349,99.9831
2259.1990,99.9807
2260.1633,99.9787
2261.1274,99.9777
2262.0918,99.9778
2263.0559,99.979
2264.0203,99.9811
2264.9844,99.9833
2265.9487,99.9846
2266.9128,99.9843
2267.8772,99.9816
2268.8413,99.9764
2269.8057,99.9696
2270.7698,99.9624
2271.7341,99.9565
2272.6982,99.9534
2273.6626,99.9536
2274.6267,99.9565
2275.5911,99.9606
2276.5552,99.9642
2277.5195,99.966
2278.4836,99.9655
2279.4480,99.9478
2280.4121,99.9285
2281.3765,99.9071
2282.3406,99.8825
2283.3049,99.8535
2284.2690,99.8199
2285.2334,99.7827
2286.1975,99.7436
2287.1619,99.7045
2288.1260,99.6662
2289.0903,99.6282
2290.0544,99.5891
2291.0188,99.5478
2291.9829,99.5037
2292.9473,99.4575
2293.9114,99.4103
2294.8757,99.3633
2295.8398,99.3165
2296.8042,99.2693
2297.7683,99.2196
2298.7327,99.1649
2299.6968,99.1031
2300.6611,99.0327
2301.6252,98.9542
2302.5896,98.8695
2303.5537,98.7813
2304.5181,98.6927
2305.4822,98.6056
2306.4465,98.5202
2307.4106,98.4351
2308.3750,98.3483
2309.3391,98.2588
2310.3035,98.1676
2311.2676,98.0769
2312.2319,97.9887
2313.1960,97.9029
2314.1604,97.8165
2315.1245,97.7256
2316.0889,97.6274
2317.0530,97.5235
2318.0173,97.42
2318.9814,97.3264
2319.9458,97.2522
2320.9099,97.2042
2321.8743,97.1849
2322.8384,97.1921
2323.8027,97.2199
2324.7668,97.2594
2325.7312,97.3008
2326.6953,97.336
2327.6597,97.3611
2328.6238,97.3773
2329.5881,97.3892
2330.5522,97.4018
2331.5166,97.4166
2332.4807,97.4304
2333.4451,97.4389
2334.4092,97.4411
2335.3735,97.4431
2336.3376,97.4553
2337.3020,97.4863
2338.2661,97.5377
2339.2305,97.6039
2340.1946,97.6737
2341.1589,97.7264
2342.1230,97.7256
2343.0874,97.6366
2344.0515,97.4782
2345.0159,97.3304
2345.9800,97.2544
2346.9443,97.2359
2347.9084,97.2167
2348.8728,97.1506
2349.8369,97.0367
2350.8013,96.9265
2351.7654,96.9089
2352.7297,97.068
2353.6938,97.4239
2354.6582,97.9086
2355.6223,98.4272
2356.5867,98.9314
2357.5508,99.4094
2358.5151,99.8263
2359.4792,100.111
2360.4436,100.207
2361.4077,100.108
2362.3721,99.8509
2363.3362,99.481
2364.3005,99.0745
2365.2646,98.6709
2366.2290,98.2831
2367.1931,97.9347
2368.1575,97.6364
2369.1216,97.3948
2370.0859,97.2183
2371.0500,97.1149
2372.0144,97.0872
2372.9785,97.1301
2373.9429,97.2326
2374.9070,97.3814
2375.8713,97.5639
2376.8354,97.7694
2377.7998,97.9891
2378.7639,98.2149
2379.7283,98.439
2380.6924,98.654
2381.6567,98.8529
2382.6208,99.0303
2383.5852,99.1828
2384.5493,99.3098
2385.5137,99.413
2386.4778,99.4961
2387.4421,99.5637
2388.4063,99.6203
2389.3706,99.6532
2390.3347,99.6575
2391.2991,99.659
2392.2632,99.6589
2393.2275,99.6582
2394.1917,99.6586
2395.1560,99.6611
2396.1201,99.6659
2397.0845,99.6714
2398.0486,99.6756
2399.0129,99.6763
2399.9771,99.6731
2400.9414,99.6678
2401.9055,99.6637
2402.8699,99.6638
2403.8340,99.6689
2404.7983,99.6776
2405.7625,99.6869
2406.7268,99.6939
2407.6909,99.6971
2408.6553,99.6966
2409.6194,99.6937
2410.5837,99.6896
2411.5479,99.6851
2412.5122,99.6807
2413.4763,99.6766
2414.4407,99.673
2415.4048,99.6698
2416.3691,99.6671
2417.3333,99.6649
2418.2976,99.6639
2419.2617,99.6644
2420.2261,99.6668
2421.1902,99.6704
2422.1545,99.6737
2423.1187,99.6754
2424.0830,99.6745
2425.0471,99.6715
2426.0115,99.6677
2426.9756,99.6645
2427.9399,99.663
2428.9041,99.6632
2429.8684,99.6642
2430.8325,99.6647
2431.7969,99.6639
2432.7610,99.6617
2433.7253,99.6589
2434.6895,99.6568
2435.6538,99.656
2436.6179,99.6562
2437.5823,99.6563
2438.5464,99.6553
2439.5107,99.6531
2440.4749,99.6507
2441.4392,99.65
2442.4033,99.6521
2443.3677,99.6569
2444.3318,99.6626
2445.2961,99.6669
2446.2603,99.6682
2447.2246,99.6666
2448.1887,99.6638
2449.1531,99.6619
2450.1172,99.6623
2451.0815,99.6649
2452.0457,99.6682
2453.0100,99.6703
2453.9741,99.6701
2454.9385,99.6674
2455.9026,99.663
2456.8669,99.6581
2457.8311,99.6539
2458.7954,99.6508
2459.7595,99.649
2460.7239,99.6483
2461.6880,99.6482
2462.6523,99.6483
2463.6165,99.6485
2464.5808,99.6491
2465.5449,99.6507
2466.5093,99.6539
2467.4734,99.6586
2468.4377,99.6635
2469.4019,99.6666
2470.3662,99.6663
2471.3303,99.662
2472.2947,99.6551
2473.2588,99.648
2474.2231,99.643
2475.1873,99.6418
2476.1516,99.6445
2477.1157,99.6504
2478.0801,99.6583
2479.0442,99.6674
2480.0085,99.6766
2480.9727,99.6848
2481.9370,99.6909
2482.9011,99.6942
2483.8655,99.6947
2484.8296,99.6937
2485.7939,99.6925
2486.7581,99.6919
2487.7224,99.6918
2488.6865,99.6907
2489.6509,99.6877
2490.6150,99.6826
2491.5793,99.6769
2492.5435,99.6731
2493.5078,99.6729
2494.4719,99.6765
2495.4363,99.6822
2496.4004,99.6873
2497.3647,99.6897
2498.3289,99.6894
2499.2932,99.688
2500.2573,99.6876
2501.2217,99.6894
2502.1858,99.6922
2503.1501,99.6932
2504.1143,99.6898
2505.0786,99.6819
2506.0427,99.672
2507.0071,99.6646
2507.9712,99.663
2508.9355,99.6681
2509.8997,99.6772
2510.8640,99.6864
2511.8281,99.6923
2512.7925,99.6939
2513.7566,99.6924
2514.7209,99.6902
2515.6851,99.6892
2516.6494,99.6903
2517.6135,99.6934
2518.5779,99.6982
2519.5420,99.7042
2520.5063,99.7105
2521.4705,99.716
2522.4348,99.7193
2523.3989,99.7196
2524.3633,99.7172
2525.3274,99.7134
2526.2917,99.7099
2527.2559,99.7081
2528.2202,99.7081
2529.1843,99.7096
2530.1487,99.7121
2531.1128,99.7151
2532.0771,99.7188
2533.0413,99.7235
2534.0056,99.7287
2534.9697,99.7336
2535.9341,99.7368
2536.8982,99.7376
2537.8625,99.7361
2538.8267,99.7334
2539.7910,99.7312
2540.7551,99.7309
2541.7195,99.7329
2542.6836,99.7364
2543.6479,99.7397
2544.6121,99.7415
2545.5764,99.7413
2546.5405,99.7397
2547.5049,99.7379
2548.4690,99.7373
2549.4333,99.7383
2550.3975,99.7407
2551.3618,99.7432
2552.3259,99.7443
2553.2903,99.7429
2554.2544,99.7389
2555.2188,99.7333
2556.1829,99.7278
2557.1472,99.7242
2558.1113,99.7239
2559.0757,99.7271
2560.0398,99.733
2561.0042,99.74
2561.9683,99.7463
2562.9326,99.7504
2563.8967,99.7517
2564.8611,99.7506
2565.8252,99.748
2566.7896,99.7456
2567.7537,99.7447
2568.7180,99.7459
2569.6821,99.7491
2570.6465,99.7528
2571.6106,99.7557
2572.5750,99.7567
2573.5391,99.7561
2574.5034,99.755
2575.4675,99.7552
2576.4319,99.7577
2577.3960,99.762
2578.3604,99.7665
2579.3245,99.7694
2580.2888,99.7698
2581.2529,99.7682
2582.2173,99.766
2583.1814,99.7651
2584.1458,99.766
2585.1099,99.7682
2586.0742,99.7699
2587.0383,99.7694
2588.0027,99.7664
2588.9668,99.7619
2589.9312,99.7581
2590.8953,99.757
2591.8596,99.7592
2592.8237,99.7637
2593.7881,99.7684
2594.7522,99.7717
2595.7166,99.7734
2596.6807,99.7743
2597.6450,99.7758
2598.6091,99.7781
2599.5735,99.7806
2600.5376,99.7818
2601.5020,99.7811
2602.4661,99.779
2603.4304,99.7764
2604.3945,99.7742
2605.3589,99.7722
2606.3230,99.7695
2607.2874,99.7655
2608.2515,99.7607
2609.2158,99.7567
2610.1799,99.7546
2611.1443,99.7544
2612.1084,99.7547
2613.0728,99.7539
2614.0369,99.7516
2615.0012,99.7494
2615.9653,99.7494
2616.9297,99.7532
2617.8938,99.76
2618.8582,99.7673
2619.8223,99.7722
2620.7866,99.7727
2621.7507,99.7692
2622.7151,99.7633
2623.6792,99.7565
2624.6436,99.7499
2625.6077,99.7435
2626.5720,99.7373
2627.5361,99.7316
2628.5005,99.7272
2629.4646,99.7243
2630.4290,99.7226
2631.3931,99.7214
2632.3574,99.7202
2633.3215,99.7191
2634.2859,99.7191
2635.2500,99.7211
2636.2144,99.7253
2637.1785,99.7312
2638.1428,99.7376
2639.1069,99.7434
2640.0713,99.7476
2641.0354,99.7489
2641.9998,99.7462
2642.9639,99.7392
2643.9282,99.729
2644.8923,99.7188
2645.8567,99.7117
2646.8208,99.7097
2647.7852,99.7121
2648.7493,99.7158
2649.7136,99.7175
2650.6777,99.7152
2651.6421,99.7094
2652.6062,99.7021
2653.5706,99.6954
2654.5347,99.69
2655.4990,99.686
2656.4631,99.6833
2657.4275,99.6825
2658.3916,99.6845
2659.3560,99.6895
2660.3201,99.6963
2661.2844,99.7022
2662.2485,99.7043
2663.2129,99.7008
2664.1770,99.6924
2665.1414,99.6815
2666.1055,99.672
2667.0698,99.6668
2668.0339,99.667
2668.9983,99.6713
2669.9624,99.676
2670.9268,99.6772
2671.8909,99.6729
2672.8552,99.6641
2673.8193,99.6544
2674.7837,99.6481
2675.7478,99.6477
2676.7122,99.6527
2677.6763,99.66
2678.6406,99.6655
2679.6047,99.6668
2680.5691,99.6632
2681.5332,99.6559
2682.4976,99.6468
2683.4617,99.6377
2684.4260,99.63
2685.3901,99.625
2686.3545,99.6232
2687.3186,99.6245
2688.2830,99.6276
2689.2471,99.6306
2690.2114,99.6314
2691.1755,99.6289
2692.1399,99.6237
2693.1040,99.617
2694.0684,99.6106
2695.0325,99.6057
2695.9968,99.6023
2696.9609,99.5999
2697.9253,99.5974
2698.8894,99.5943
2699.8538,99.5905
2700.8179,99.5866
2701.7822,99.5834
2702.7463,99.5815
2703.7107,99.5809
2704.6748,99.5811
2705.6392,99.5809
2706.6033,99.5794
2707.5676,99.5761
2708.5317,99.5716
2709.4961,99.5672
2710.4602,99.5644
2711.4246,99.5642
2712.3887,99.5665
2713.3530,99.5702
2714.3171,99.5739
2715.2815,99.5765
2716.2456,99.5777
2717.2100,99.5775
2718.1741,99.576
2719.1384,99.5731
2720.1025,99.5686
2721.0669,99.5627
2722.0310,99.5561
2722.9954,99.5495
2723.9595,99.5438
2724.9238,99.539
2725.8879,99.5349
2726.8523,99.5309
2727.8164,99.5265
2728.7808,99.5218
2729.7449,99.5169
2730.7092,99.512
2731.6733,99.5076
2732.6377,99.504
2733.6018,99.5019
2734.5662,99.5015
2735.5303,99.5029
2736.4946,99.5053
2737.4587,99.5076
2738.4231,99.5086
2739.3872,99.5079
2740.3516,99.5059
2741.3157,99.5035
2742.2800,99.5017
2743.2441,99.5011
2744.2085,99.5012
2745.1726,99.5012
2746.1370,99.5002
2747.1011,99.4979
2748.0654,99.4951
2749.0295,99.4932
2749.9939,99.4936
2750.9580,99.497
2751.9224,99.5026
2752.8865,99.5085
2753.8508,99.512
2754.8149,99.511
2755.7793,99.505
2756.7434,99.4957
2757.7078,99.4862
2758.6719,99.4795
2759.6362,99.4776
2760.6003,99.4802
2761.5647,99.485
2762.5288,99.4894
2763.4932,99.4915
2764.4573,99.4912
2765.4216,99.4897
2766.3857,99.4885
2767.3501,99.4882
2768.3142,99.4878
2769.2786,99.4849
2770.2427,99.4776
2771.2070,99.4655
2772.1711,99.4504
2773.1355,99.4357
2774.0996,99.4246
2775.0640,99.419
2776.0281,99.4188
2776.9924,99.4221
2777.9565,99.4263
2778.9209,99.4295
2779.8850,99.4307
2780.8494,99.43
2781.8135,99.428
2782.7778,99.4258
2783.7419,99.4242
2784.7063,99.4233
2785.6704,99.4223
2786.6348,99.4199
2787.5989,99.4148
2788.5632,99.4063
2789.5273,99.3952
2790.4917,99.3835
2791.4558,99.3735
2792.4202,99.3675
2793.3843,99.3666
2794.3486,99.3703
2795.3127,99.3769
2796.2771,99.3836
2797.2412,99.3874
2798.2056,99.3857
2799.1697,99.3777
2800.1340,99.3649
2801.0981,99.3506
2802.0625,99.3384
2803.0266,99.3307
2803.9910,99.3281
2804.9551,99.3287
2805.9194,99.3298
2806.8835,99.3283
2807.8479,99.3223
2808.8120,99.3113
2809.7764,99.296
2810.7405,99.2785
2811.7048,99.2618
2812.6689,99.2479
2813.6333,99.238
2814.5974,99.2312
2815.5618,99.2258
2816.5259,99.2202
2817.4902,99.2138
2818.4543,99.2069
2819.4187,99.2
2820.3828,99.193
2821.3472,99.1851
2822.3113,99.1756
2823.2756,99.1645
2824.2397,99.1525
2825.2041,99.1397
2826.1682,99.1251
2827.1326,99.1073
2828.0967,99.0861
2829.0610,99.0627
2830.0251,99.0406
2830.9895,99.0228
2831.9536,99.0104
2832.9180,99.0018
2833.8821,98.9942
2834.8464,98.9856
2835.8105,98.9763
2836.7749,98.9689
2837.7390,98.9663
2838.7034,98.9706
2839.6675,98.9821
2840.6318,99.0003
2841.5959,99.0253
2842.5603,99.058
2843.5244,99.0999
2844.4888,99.1523
2845.4529,99.2155
2846.4172,99.2884
2847.3813,99.3682
2848.3457,99.4502
2849.3098,99.5279
2850.2742,99.5939
2851.2383,99.6412
2852.2026,99.6656
2853.1667,99.6588
2854.1311,99.6305
2855.0952,99.5873
2856.0596,99.5356
2857.0237,99.4808
2857.9880,99.4268
2858.9521,99.3756
2859.9165,99.3276
2860.8806,99.282
2861.8450,99.2378
2862.8091,99.1948
2863.7734,99.1532
2864.7375,99.1144
2865.7019,99.0803
2866.6660,99.0525
2867.6304,99.0314
2868.5945,99.016
2869.5588,99.0035
2870.5229,98.9901
2871.4873,98.9722
2872.4514,98.948
2873.4158,98.9189
2874.3799,98.8891
2875.3442,98.8641
2876.3083,98.8484
2877.2727,98.8441
2878.2368,98.8495
2879.2012,98.8607
2880.1653,98.8731
2881.1296,98.8834
2882.0938,98.8901
2883.0581,98.8942
2884.0222,98.8984
2884.9866,98.9055
2885.9507,98.9173
2886.9150,98.9335
2887.8792,98.952
2888.8435,98.9694
2889.8076,98.9829
2890.7720,98.9912
2891.7361,98.9951
2892.7004,98.9976
2893.6646,99.0034
2894.6289,99.0184
2895.5930,99.0483
2896.5574,99.0961
2897.5215,99.1592
2898.4858,99.2289
2899.4500,99.2913
2900.4143,99.3333
2901.3784,99.3481
2902.3428,99.3392
2903.3069,99.3183
2904.2712,99.3008
2905.2354,99.2985
2906.1997,99.3165
2907.1638,99.353
2908.1282,99.4021
2909.0923,99.4579
2910.0566,99.5163
2911.0208,99.5758
2911.9851,99.6372
2912.9492,99.7015
2913.9136,99.7695
2914.8777,99.8406
2915.8420,99.9129
2916.8062,99.9836
2917.7705,100.05
2918.7346,100.109
2919.6990,100.159
2920.6631,100.2
2921.6274,100.232
2922.5916,100.252
2923.5559,100.262
2924.5200,100.259
2925.4844,100.243
2926.4485,100.214
2927.4128,100.172
2928.3770,100.118
2929.3413,100.056
2930.3054,99.9895
2931.2698,99.9227
2932.2339,99.8588
2933.1982,99.7996
2934.1624,99.7454
2935.1267,99.696
2936.0908,99.6512
2937.0552,99.6109
2938.0193,99.5753
2938.9836,99.5442
2939.9478,99.5177
2940.9121,99.4961
2941.8762,99.4809
2942.8406,99.4746
2943.8047,99.4794
2944.7690,99.4967
2945.7332,99.5253
2946.6975,99.5622
2947.6616,99.6029
2948.6260,99.6438
2949.5901,99.6837
2950.5544,99.7247
2951.5186,99.7706
2952.4829,99.8244
2953.4470,99.8858
2954.4114,99.9502
2955.3755,100.01
2956.3398,100.06
2957.3040,100.094
2958.2683,100.116
2959.2324,100.129
2960.1968,100.14
2961.1609,100.154
2962.1252,100.172
2963.0894,100.194
2964.0537,100.216
2965.0178,100.237
2965.9822,100.253
2966.9463,100.261
2967.9106,100.263
2968.8748,100.26
2969.8391,100.255
2970.8032,100.25
2971.7676,100.245
2972.7317,100.24
2973.6960,100.232
2974.6602,100.22
2975.6245,100.206
2976.5886,100.193
2977.5530,100.182
2978.5171,100.173
2979.4814,100.167
2980.4456,100.161
2981.4099,100.158
2982.3740,100.162
2983.3384,100.176
2984.3025,100.202
2985.2668,100.233
2986.2310,100.257
2987.1953,100.262
2988.1594,100.239
2989.1238,100.189
2990.0879,100.121
2991.0522,100.053
2992.0164,99.993
2992.9807,99.948
2993.9448,99.9162
2994.9092,99.8906
2995.8733,99.8637
2996.8376,99.8313
2997.8018,99.7938
2998.7661,99.7551
2999.7302,99.7195
3000.6946,99.6883
3001.6587,99.6587
3002.6230,99.6258
3003.5872,99.5852
3004.5515,99.5361
3005.5156,99.4824
3006.4800,99.4305
3007.4441,99.3862
3008.4084,99.3519
3009.3726,99.3252
3010.3369,99.3009
3011.3010,99.2737
3012.2654,99.2405
3013.2295,99.2013
3014.1938,99.158
3015.1580,99.1131
3016.1223,99.0683
3017.0864,99.0251
3018.0508,98.9852
3019.0149,98.9502
3019.9792,98.9211
3020.9434,98.8966
3021.9077,98.8736
3022.8718,98.8479
3023.8362,98.8166
3024.8003,98.7801
3025.7646,98.7423
3026.7288,98.7088
3027.6931,98.6834
3028.6572,98.6666
3029.6216,98.6545
3030.5857,98.6405
3031.5500,98.6192
3032.5142,98.5888
3033.4785,98.5526
3034.4426,98.5168
3035.4070,98.4871
3036.3711,98.4659
3037.3354,98.4515
3038.2996,98.4393
3039.2639,98.4247
3040.2280,98.4055
3041.1924,98.3825
3042.1565,98.3586
3043.1208,98.3369
3044.0850,98.3191
3045.0493,98.3051
3046.0134,98.2932
3046.9778,98.2813
3047.9419,98.2681
3048.9063,98.2528
3049.8704,98.2361
3050.8347,98.219
3051.7988,98.2025
3052.7632,98.1874
3053.7273,98.1738
3054.6917,98.1615
3055.6558,98.15
3056.6201,98.1386
3057.5842,98.1268
3058.5486,98.1142
3059.5127,98.1008
3060.4771,98.0874
3061.4412,98.0753
3062.4055,98.0662
3063.3696,98.0604
3064.3340,98.0569
3065.2981,98.0529
3066.2625,98.0451
3067.2266,98.0315
3068.1909,98.012
3069.1550,97.9884
3070.1194,97.9635
3071.0835,97.9398
3072.0479,97.9192
3073.0120,97.9025
3073.9763,97.8897
3074.9404,97.8803
3075.9048,97.8732
3076.8689,97.867
3077.8333,97.8602
3078.7974,97.8523
3079.7617,97.8439
3080.7258,97.836
3081.6902,97.8293
3082.6543,97.8234
3083.6187,97.8168
3084.5828,97.8077
3085.5471,97.7948
3086.5112,97.7775
3087.4756,97.7568
3088.4397,97.7351
3089.4041,97.7156
3090.3682,97.7019
3091.3325,97.6964
3092.2966,97.6982
3093.2610,97.7029
3094.2251,97.7036
3095.1895,97.6947
3096.1536,97.6749
3097.1179,97.6486
3098.0820,97.6234
3099.0464,97.606
3100.0105,97.5977
3100.9749,97.5946
3101.9390,97.5906
3102.9033,97.5812
3103.8674,97.5664
3104.8318,97.549
3105.7959,97.532
3106.7603,97.5157
3107.7244,97.4977
3108.6887,97.4757
3109.6528,97.4499
3110.6172,97.424
3111.5813,97.4036
3112.5457,97.3926
3113.5098,97.3913
3114.4741,97.3962
3115.4382,97.4022
3116.4026,97.4046
3117.3667,97.4009
3118.3311,97.3906
3119.2952,97.3748
3120.2595,97.3543
3121.2236,97.3301
3122.1880,97.3028
3123.1521,97.273
3124.1165,97.2419
3125.0806,97.2113
3126.0449,97.1842
3127.0090,97.1641
3127.9734,97.1541
3128.9375,97.1548
3129.9019,97.1634
3130.8660,97.1736
3131.8303,97.1777
3132.7944,97.1696
3133.7588,97.148
3134.7229,97.1167
3135.6873,97.0826
3136.6514,97.0527
3137.6157,97.0305
3138.5798,97.0158
3139.5442,97.0053
3140.5083,96.9949
3141.4727,96.9817
3142.4368,96.9647
3143.4011,96.945
3144.3652,96.9247
3145.3296,96.9058
3146.2937,96.8892
3147.2581,96.8744
3148.2222,96.8593
3149.1865,96.8418
3150.1506,96.8205
3151.1150,96.7956
3152.0791,96.7693
3153.0435,96.7438
3154.0076,96.7213
3154.9719,96.7022
3155.9360,96.686
3156.9004,96.6711
3157.8645,96.6555
3158.8289,96.6376
3159.7930,96.6167
3160.7573,96.5936
3161.7214,96.571
3162.6858,96.5526
3163.6499,96.5409
3164.6143,96.5355
3165.5784,96.5326
3166.5427,96.5269
3167.5068,96.5142
3168.4712,96.4938
3169.4353,96.4039
3170.3997,96.3793
3171.3638,96.3594
3172.3281,96.3453
3173.2922,96.335
3174.2566,96.3247
3175.2207,96.3107
3176.1851,96.2906
3177.1492,96.2633
3178.1135,96.23
3179.0776,96.1944
3180.0420,96.1612
3181.0061,96.1349
3181.9705,96.1177
3182.9346,96.1088
3183.8989,96.1045
3184.8630,96.1004
3185.8274,96.0928
3186.7915,96.0805
3187.7559,96.0636
3188.7200,96.043
3189.6843,96.019
3190.6484,95.9916
3191.6128,95.9611
3192.5769,95.9291
3193.5413,95.8978
3194.5054,95.8693
3195.4697,95.8445
3196.4338,95.8237
3197.3982,95.8072
3198.3623,95.7964
3199.3267,95.793
3200.2908,95.7971
3201.2551,95.8055
3202.2192,95.8109
3203.1836,95.8051
3204.1477,95.7823
3205.1121,95.7425
3206.0762,95.6925
3207.0405,95.6428
3208.0046,95.6031
3208.9690,95.578
3209.9331,95.5658
3210.8975,95.5605
3211.8616,95.5553
3212.8259,95.5462
3213.7900,95.533
3214.7544,95.5183
3215.7185,95.5051
3216.6829,95.4946
3217.6470,95.4851
3218.6113,95.4735
3219.5754,95.4565
3220.5398,95.4328
3221.5039,95.403
3222.4683,95.3694
3223.4324,95.335
3224.3967,95.3024
3225.3608,95.2743
3226.3252,95.2538
3227.2893,95.244
3228.2537,95.2459
3229.2178,95.257
3230.1821,95.2704
3231.1462,95.2772
3232.1106,95.2699
3233.0747,95.2457
3234.0391,95.2077
3235.0032,95.1626
3235.9675,95.1175
3236.9316,95.0775
3237.8960,95.0447
3238.8601,95.0192
3239.8245,95
3240.7886,94.9858
3241.7529,94.9751
3242.7170,94.9662
3243.6814,94.9579
3244.6455,94.9492
3245.6099,94.9397
3246.5740,94.9285
3247.5383,94.9135
3248.5024,94.8926
3249.4668,94.8656
3250.4309,94.8352
3251.3953,94.807
3252.3594,94.7867
3253.3237,94.7762
3254.2878,94.7721
3255.2522,94.767
3256.2163,94.7532
3257.1807,94.7274
3258.1448,94.6919
3259.1091,94.6532
3260.0732,94.6186
3261.0376,94.5922
3262.0017,94.5741
3262.9661,94.5607
3263.9302,94.5478
3264.8945,94.5322
3265.8586,94.5134
3266.8230,94.4924
3267.7871,94.4708
3268.7515,94.4503
3269.7156,94.4321
3270.6799,94.4172
3271.6440,94.4068
3272.6084,94.4018
3273.5725,94.4014
3274.5369,94.4032
3275.5010,94.4038
3276.4653,94.4
3277.4294,94.3907
3278.3938,94.3772
3279.3579,94.3621
3280.3223,94.3484
3281.2864,94.338
3282.2507,94.3313
3283.2148,94.3275
3284.1792,94.3246
3285.1433,94.3201
3286.1077,94.3112
3287.0718,94.2964
3288.0361,94.2768
3289.0002,94.2564
3289.9646,94.2404
3290.9287,94.2327
3291.8931,94.233
3292.8572,94.2365
3293.8215,94.2363
3294.7856,94.2276
3295.7500,94.2107
3296.7141,94.1906
3297.6785,94.1747
3298.6426,94.1684
3299.6069,94.1729
3300.5710,94.1841
3301.5354,94.1956
3302.4995,94.2014
3303.4639,94.1987
3304.4280,94.1884
3305.3923,94.1743
3306.3564,94.1609
3307.3208,94.1516
3308.2849,94.147
3309.2493,94.1452
3310.2134,94.1434
3311.1777,94.1388
3312.1418,94.13
3313.1062,94.117
3314.0703,94.1006
3315.0347,94.0824
3315.9988,94.0642
3316.9631,94.0485
3317.9272,94.0374
3318.8916,94.0321
3319.8557,94.0322
3320.8201,94.0359
3321.7842,94.0401
3322.7485,94.0425
3323.7126,94.0421
3324.6770,94.0398
3325.6411,94.0367
3326.6055,94.0337
3327.5696,94.0297
3328.5339,94.0231
3329.4980,94.0127
3330.4624,93.9985
3331.4265,93.9831
3332.3909,93.9701
3333.3550,93.9636
3334.3193,93.966
3335.2834,93.9779
3336.2478,93.9979
3337.2119,94.0226
3338.1763,94.0481
3339.1404,94.0699
3340.1047,94.0847
3341.0688,94.0918
3342.0332,94.093
3342.9973,94.0927
3343.9617,94.0946
3344.9258,94.0999
3345.8901,94.1063
3346.8542,94.1099
3347.8186,94.1078
3348.7827,94.1012
3349.7471,94.0936
3350.7112,94.0889
3351.6755,94.088
3352.6396,94.089
3353.6040,94.0892
3354.5681,94.089
3355.5325,94.0919
3356.4966,94.1028
3357.4609,94.1231
3358.4250,94.1493
3359.3894,94.1736
3360.3535,94.1888
3361.3179,94.1919
3362.2820,94.1864
3363.2463,94.1795
3364.2104,94.1788
3365.1748,94.1887
3366.1389,94.2087
3367.1033,94.2343
3368.0674,94.2597
3369.0317,94.2811
3369.9958,94.2978
3370.9602,94.313
3371.9243,94.3312
3372.8887,94.3556
3373.8528,94.3847
3374.8171,94.4123
3375.7813,94.43
3376.7456,94.4316
3377.7097,94.4169
3378.6741,94.3924
3379.6382,94.3685
3380.6025,94.3549
3381.5667,94.3572
3382.5310,94.3747
3383.4951,94.4015
3384.4595,94.4285
3385.4236,94.4473
3386.3879,94.4536
3387.3521,94.4489
3388.3164,94.4399
3389.2805,94.4353
3390.2449,94.4408
3391.2090,94.4561
3392.1733,94.4743
3393.1375,94.4868
3394.1018,94.4886
3395.0659,94.4816
3396.0303,94.4733
3396.9944,94.4722
3397.9587,94.4826
3398.9229,94.5025
3399.8872,94.5257
3400.8513,94.5457
3401.8157,94.5598
3402.7798,94.5697
3403.7441,94.5796
3404.7083,94.5921
3405.6726,94.6059
3406.6367,94.616
3407.6011,94.6175
3408.5652,94.6094
3409.5295,94.5965
3410.4937,94.5878
3411.4580,94.5914
3412.4221,94.6099
3413.3865,94.639
3414.3506,94.67
3415.3149,94.6957
3416.2791,94.7145
3417.2434,94.7298
3418.2075,94.7462
3419.1719,94.766
3420.1360,94.7872
3421.1003,94.8063
3422.0645,94.822
3423.0288,94.8365
3423.9929,94.8536
3424.9573,94.8751
3425.9214,94.8996
3426.8857,94.9223
3427.8499,94.9381
3428.8142,94.944
3429.7783,94.9416
3430.7427,94.9367
3431.7068,94.9366
3432.6711,94.9466
3433.6353,94.967
3434.5996,94.9936
3435.5637,95.0195
3436.5281,95.0395
3437.4922,95.0523
3438.4565,95.0598
3439.4207,95.0644
3440.3850,95.0659
3441.3491,95.0629
3442.3135,95.0564
3443.2776,95.0532
3444.2419,95.0652
3445.2061,95.1027
3446.1704,95.1657
3447.1345,95.2405
3448.0989,95.3064
3449.0630,95.3478
3450.0273,95.3619
3450.9915,95.3585
3451.9558,95.3522
3452.9199,95.3549
3453.8843,95.3693
3454.8484,95.3907
3455.8127,95.4117
3456.7769,95.4288
3457.7412,95.4447
3458.7053,95.4654
3459.6697,95.4958
3460.6338,95.5355
3461.5981,95.5797
3462.5623,95.6213
3463.5266,95.6557
3464.4907,95.6827
3465.4551,95.7053
3466.4192,95.7275
3467.3835,95.7508
3468.3477,95.7739
3469.3120,95.794
3470.2761,95.8096
3471.2405,95.8229
3472.2046,95.8382
3473.1689,95.8592
3474.1331,95.886
3475.0974,95.9149
3476.0615,95.9418
3477.0259,95.9665
3477.9900,95.9934
3478.9543,96.0284
3479.9185,96.0734
3480.8828,96.1224
3481.8469,96.1644
3482.8113,96.1909
3483.7754,96.2026
3484.7397,96.2084
3485.7039,96.2204
3486.6682,96.2466
3487.6323,96.2863
3488.5967,96.3309
3489.5608,96.3701
3490.5251,96.3986
3491.4893,96.4192
3492.4536,96.4405
3493.4177,96.4713
3494.3821,96.5136
3495.3462,96.5602
3496.3105,96.5981
3497.2747,96.6174
3498.2390,96.6183
3499.2031,96.613
3500.1675,96.6196
3501.1316,96.6515
3502.0959,96.7065
3503.0601,96.7671
3504.0244,96.8138
3504.9885,96.8381
3505.9529,96.8464
3506.9170,96.8542
3507.8813,96.8772
3508.8455,96.9216
3509.8098,96.9803
3510.7739,97.0374
3511.7383,97.0795
3512.7024,97.1024
3513.6667,97.11
3514.6309,97.11
3515.5952,97.1094
3516.5593,97.1122
3517.5237,97.1202
3518.4878,97.1346
3519.4521,97.1581
3520.4163,97.1931
3521.3806,97.2399
3522.3447,97.2949
3523.3091,97.3525
3524.2732,97.4089
3525.2375,97.4642
3526.2017,97.5193
3527.1660,97.5709
3528.1301,97.6106
3529.0945,97.6302
3530.0586,97.6286
3531.0229,97.6133
3531.9871,97.5971
3532.9514,97.5937
3533.9155,97.6118
3534.8799,97.6516
3535.8440,97.7035
3536.8083,97.7533
3537.7725,97.7898
3538.7368,97.8087
3539.7009,97.812
3540.6653,97.808
3541.6294,97.8109
3542.5938,97.8376
3543.5579,97.8977
3544.5222,97.9814
3545.4863,98.061
3546.4507,98.11
3547.4148,98.1204
3548.3792,98.1037
3549.3433,98.0815
3550.3076,98.0787
3551.2717,98.1126
3552.2361,98.1822
3553.2002,98.2678
3554.1646,98.3438
3555.1287,98.3947
3556.0930,98.4207
3557.0571,98.4334
3558.0215,98.4446
3558.9856,98.4544
3559.9500,98.448
3560.9141,98.4066
3561.8784,98.3271
3562.8425,98.2364
3563.8069,98.1931
3564.7710,98.2609
3565.7354,98.4468
3566.6995,98.6624
3567.6638,98.7994
3568.6279,98.8331
3569.5923,98.8017
3570.5564,98.7407
3571.5208,98.6722
3572.4849,98.6179
3573.4492,98.5992
3574.4133,98.627
3575.3777,98.6949
3576.3418,98.7855
3577.3062,98.8804
3578.2703,98.9634
3579.2346,99.0176
3580.1987,99.0244
3581.1631,98.9696
3582.1272,98.8555
3583.0916,98.7134
3584.0557,98.6076
3585.0200,98.6159
3585.9841,98.77
3586.9485,98.9991
3587.9126,99.1771
3588.8770,99.2402
3589.8411,99.2083
3590.8054,99.1284
3591.7695,99.0465
3592.7339,99.0032
3593.6980,99.0191
3594.6624,99.0823
3595.6265,99.1619
3596.5908,99.2395
3597.5549,99.3198
3598.5193,99.4144
3599.4834,99.5178
3600.4478,99.6005
3601.4119,99.6265
3602.3762,99.5795
3603.3403,99.4731
3604.3047,99.3465
3605.2688,99.2513
3606.2332,99.2276
3607.1973,99.2774
3608.1616,99.3629
3609.1257,99.4416
3610.0901,99.4986
3611.0542,99.5408
3612.0186,99.5722
3612.9829,99.5823
3613.9470,99.5567
3614.9114,99.4983
3615.8755,99.4407
3616.8398,99.4392
3617.8040,99.5355
3618.7683,99.7128
3619.7324,99.8959
3620.6968,100.01
3621.6609,100.02
3622.6252,99.9168
3623.5894,99.7079
3624.5537,99.4404
3625.5178,99.2236
3626.4822,99.2073
3627.4463,99.4654
3628.4106,99.8551
3629.3748,100.128
3630.3391,100.207
3631.3032,100.175
3632.2676,100.106
3633.2317,100.038
3634.1960,99.9906
3635.1602,99.9785
3636.1245,100.002
3637.0886,100.051
3638.0530,100.111
3639.0171,100.171
3639.9814,100.219
3640.9456,100.232
3641.9099,100.183
3642.8740,100.048
3643.8384,99.8368
3644.8025,99.6159
3645.7668,99.538
3646.7310,99.8091
3647.6953,100.483
3648.6594,101.174
3649.6238,101.389
3650.5879,101.172
3651.5522,100.821
3652.5164,100.48
3653.4807,100.194
3654.4448,100.005
3655.4092,99.9619
3656.3733,100.069
3657.3376,100.267
3658.3018,100.473
3659.2661,100.635
3660.2302,100.737
3661.1946,100.787
3662.1587,100.786
3663.1230,100.723
3664.0872,100.585
3665.0515,100.383
3666.0156,100.174
3666.9800,100.061
3667.9441,100.125
3668.9084,100.326
3669.8726,100.49
3670.8369,100.476
3671.8010,100.311
3672.7654,100.136
3673.7295,100.109
3674.6938,100.298
3675.6580,100.595
3676.6223,100.818
3677.5864,100.902
3678.5508,100.887
3679.5149,100.816
3680.4792,100.711
3681.4434,100.579
3682.4077,100.412
3683.3718,100.201
3684.3362,99.9513
3685.3003,99.714
3686.2646,99.6011
3687.2288,99.7418
3688.1931,100.153
3689.1572,100.635
3690.1216,100.927
3691.0857,100.967
3692.0500,100.849
3693.0142,100.664
3693.9785,100.455
3694.9426,100.241
3695.9070,100.032
3696.8711,99.8431
3697.8354,99.7026
3698.7996,99.6501
3699.7639,99.7201
3700.7280,99.9058
3701.6924,100.137
3702.6565,100.31
3703.6208,100.353
3704.5850,100.245
3705.5493,100.014
3706.5134,99.726
3707.4778,99.484
3708.4419,99.416
3709.4063,99.6015
3710.3704,99.9604
3711.3347,100.275
3712.2988,100.411
3713.2632,100.398
3714.2273,100.308
3715.1917,100.178
3716.1558,100.024
3717.1201,99.8752
3718.0842,99.77
3719.0486,99.7438
3720.0127,99.8111
3720.9771,99.962
3721.9412,100.17
3722.9055,100.401
3723.8696,100.61
3724.8340,100.744
3725.7981,100.764
3726.7625,100.662
3727.7266,100.452
3728.6909,100.164
3729.6550,99.8492
3730.6194,99.5913
3731.5835,99.5147
3732.5479,99.7511
3733.5120,100.337
3734.4763,101.052
3735.4404,101.547
3736.4048,101.661
3737.3689,101.483
3738.3333,101.133
3739.2974,100.668
3740.2617,100.136
3741.2258,99.6342
3742.1902,99.3145
3743.1543,99.2921
3744.1187,99.5081
3745.0828,99.7527
3746.0471,99.8735
3747.0112,99.8761
3747.9756,99.8692
3748.9397,99.9745
3749.9041,100.197
3750.8682,100.36
3751.8325,100.316
3752.7966,100.117
3753.7610,99.8667
3754.7251,99.6184
3755.6895,99.4134
3756.6536,99.3047
3757.6179,99.3216
3758.5820,99.4259
3759.5464,99.5305
3760.5105,99.568
3761.4749,99.5259
3762.4390,99.4307
3763.4033,99.323
3764.3674,99.2412
3765.3318,99.2087
3766.2959,99.2302
3767.2603,99.2959
3768.2244,99.3887
3769.1887,99.4855
3770.1528,99.5576
3771.1172,99.579
3772.0813,99.535
3773.0457,99.425
3774.0098,99.265
3774.9741,99.0934
3775.9382,98.971
3776.9026,98.9568
3777.8667,99.066
3778.8311,99.2465
3779.7952,99.4145
3780.7595,99.5163
3781.7236,99.5471
3782.6880,99.5312
3783.6521,99.4962
3784.6165,99.4609
3785.5806,99.4327
3786.5449,99.4118
3787.5090,99.3951
3788.4734,99.3763
3789.4375,99.3471
3790.4019,99.3029
3791.3660,99.2513
3792.3303,99.2143
3793.2944,99.218
3794.2588,99.271
3795.2229,99.3489
3796.1873,99.4057
3797.1514,99.4105
3798.1157,99.3756
3799.0798,99.3451
3800.0442,99.3441
3801.0083,99.3403
3801.9727,99.2791
3802.9368,99.1504
3803.9011,98.9986
3804.8652,98.8927
3805.8296,98.8956
3806.7937,99.0236
3807.7581,99.2209
3808.7222,99.3929
3809.6865,99.4646
3810.6506,99.4105
3811.6150,99.2613
3812.5791,99.0989
3813.5435,99.02
3814.5076,99.0663
3815.4719,99.1795
3816.4360,99.2569
3817.4004,99.2562
3818.3645,99.2202
3819.3289,99.2152
3820.2930,99.2593
3821.2573,99.3117
3822.2214,99.3335
3823.1858,99.3235
3824.1499,99.2984
3825.1143,99.2746
3826.0784,99.268
3827.0427,99.2892
3828.0068,99.3355
3828.9712,99.3896
3829.9353,99.4262
3830.8997,99.4196
3831.8638,99.3498
3832.8281,99.2112
3833.7922,99.0233
3834.7566,98.8372
3835.7207,98.7249
3836.6851,98.7442
3837.6492,98.8927
3838.6135,99.1035
3839.5776,99.3
3840.5420,99.4505
3841.5061,99.5636
3842.4705,99.6565
3843.4346,99.7321
3844.3989,99.7715
3845.3630,99.7392
3846.3274,99.5949
3847.2915,99.3099
3848.2559,98.8908
3849.2200,98.4121
3850.1843,98.0515
3851.1484,98.0738
3852.1128,98.629
3853.0769,99.4152
3854.0413,99.9078
3855.0054,100.014
3855.9697,99.9225
3856.9338,99.7351
3857.8982,99.4766
3858.8623,99.1794
3859.8267,98.9158
3860.7908,98.7787
3861.7551,98.8283
3862.7192,99.0302
3863.6836,99.2587
3864.6477,99.3879
3865.6121,99.3749
3866.5762,99.2595
3867.5405,99.1217
3868.5046,99.0413
3869.4690,99.0628
3870.4331,99.173
3871.3975,99.3139
3872.3616,99.4237
3873.3259,99.4656
3874.2900,99.4295
3875.2544,99.3258
3876.2185,99.1844
3877.1829,99.054
3878.1470,98.9893
3879.1113,99.0218
3880.0754,99.1335
3881.0398,99.2651
3882.0039,99.3596
3882.9683,99.3958
3883.9324,99.3811
3884.8967,99.3265
3885.8608,99.2357
3886.8252,99.115
3887.7893,98.9873
3888.7537,98.9008
3889.7178,98.9192
3890.6821,99.0764
3891.6462,99.323
3892.6106,99.541
3893.5747,99.6308
3894.5391,99.5637
3895.5032,99.3721
3896.4675,99.1264
3897.4316,98.9132
3898.3960,98.8027
3899.3601,98.8171
3900.3245,98.9285
3901.2886,99.0904
3902.2529,99.2628
3903.2170,99.4127
3904.1814,99.5152
3905.1455,99.5631
3906.1099,99.5641
3907.0740,99.53
3908.0383,99.4723
3909.0024,99.403
3909.9668,99.3325
3910.9309,99.2651
3911.8953,99.2014
3912.8594,99.1461
3913.8237,99.1161
3914.7878,99.1369
3915.7522,99.2224
3916.7163,99.3526
3917.6807,99.4751
3918.6448,99.5389
3919.6091,99.527
3920.5732,99.4582
3921.5376,99.3708
3922.5017,99.3029
3923.4661,99.2749
3924.4302,99.2785
3925.3945,99.2864
3926.3586,99.2755
3927.3230,99.2436
3928.2871,99.2126
3929.2515,99.2171
3930.2156,99.2822
3931.1799,99.3995
3932.1440,99.5272
3933.1084,99.6179
3934.0725,99.645
3935.0369,99.6068
3936.0010,99.5168
3936.9653,99.3964
3937.9294,99.2714
3938.8938,99.1701
3939.8579,99.1172
3940.8223,99.1243
3941.7864,99.1808
3942.7507,99.2572
3943.7148,99.3218
3944.6792,99.3582
3945.6433,99.371
3946.6077,99.3792
3947.5718,99.4004
3948.5361,99.437
3949.5002,99.4724
3950.4646,99.484
3951.4287,99.4605
3952.3931,99.4081
3953.3572,99.3466
3954.3215,99.2983
3955.2856,99.2785
3956.2500,99.2896
3957.2141,99.3238
3958.1785,99.3703
3959.1426,99.4208
3960.1069,99.4702
3961.0710,99.5123
3962.0354,99.539
3962.9995,99.5418
3963.9639,99.5176
3964.9280,99.4711
3965.8923,99.4141
3966.8564,99.3612
3967.8208,99.3245
3968.7849,99.3099
3969.7493,99.3174
3970.7134,99.3431
3971.6777,99.3817
3972.6418,99.4271
3973.6062,99.4719
3974.5703,99.5074
3975.5347,99.5264
3976.4988,99.5262
3977.4631,99.5105
3978.4272,99.4878
3979.3916,99.4677
3980.3557,99.4566
3981.3201,99.4552
3982.2842,99.4587
3983.2485,99.4603
3984.2126,99.4549
3985.1770,99.4425
3986.1411,99.4273
3987.1055,99.4161
3988.0696,99.4138
3989.0339,99.4215
3989.9980,99.4353
3990.9624,99.4496
3991.9265,99.4598
3992.8909,99.4649
3993.8550,99.4667
3994.8193,99.4674
3995.7834,99.4672
3996.7478,99.4651
3997.7119,99.4601
3998.6763,99.4534
3999.6404,99.4484
4000.6047,99.601

##### Extended Information
[Comments]
Sample name
Comment
User
Division
Company,HANKYONG

[Detailed Information]
Creation date,4/24/2024 2:43 PM

Data array type,Linear data array
Horizontal axis,Wavenumber [cm-1]
Vertical axis,%T
Start,649.893 cm-1
End,4000.6 cm-1
Data interval,0.964233 cm-1
Data points,3476    

[Measurement Information]
Model Name,FT/IR-4700typeA
Serial Number,D056761788

Accessory,ATR PRO ONE
Accessory S/N,C174761809
Incident angle,45 deg

Measurement Date,4/24/2024 2:42 PM

Light Source,Standard
Detector,TGS
Accumulation,32
Resolution,4 cm-1
Zero Filling,On
Apodization,Cosine
Gain,Auto (4)
Aperture,Auto (7.1 mm)
Scanning Speed,Auto (2 mm/sec)
Filter,Auto (30000 Hz)

