TITLE,
DATA TYPE,INFRARED SPECTRUM
ORIGIN,JASCO
OWNER,
DATE,24/04/24
TIME,14:45:55
SPECTROMETER/DATA SYSTEM,
LOCALE,1033
RESOLUTION,
DELTAX,0.964233
XUNITS,1/CM
YUNITS,TRANSMITTANCE
FIRSTX,  649.8934
LASTX, 4000.6047
NPOINTS,    3476
FIRSTY,    99.18109
MAXY,   101.52682
MINY,    86.48155
XYDATA
649.8934,99.1811
650.8576,99.247
651.8218,99.3272
652.7861,99.4047
653.7503,99.455
654.7145,99.4599
655.6788,99.4208
656.6430,99.3239
657.6072,99.2218
658.5715,99.1318
659.5357,99.0494
660.4999,98.9668
661.4642,98.8913
662.4284,98.8516
663.3926,98.8863
664.3569,99.0323
665.3211,99.3175
666.2853,99.7418
667.2496,100.215
668.2138,100.507
669.1780,100.438
670.1423,100.14
671.1065,99.8576
672.0707,99.699
673.0350,99.6631
673.9992,99.7143
674.9634,99.8133
675.9277,99.9278
676.8919,100.038
677.8561,100.134
678.8204,100.213
679.7846,100.267
680.7488,100.294
681.7131,100.296
682.6773,100.291
683.6415,100.297
684.6058,100.325
685.5700,100.375
686.5342,100.431
687.4985,100.475
688.4627,100.489
689.4269,100.467
690.3912,100.415
691.3554,100.347
692.3196,100.279
693.2839,100.219
694.2481,100.171
695.2123,100.131
696.1766,100.092
697.1408,100.044
698.1050,99.9815
699.0693,99.9134
700.0335,99.8552
700.9977,99.8216
701.9620,99.8183
702.9262,99.8396
703.8904,99.871
704.8547,99.8954
705.8189,99.8994
706.7831,99.8787
707.7474,99.8391
708.7116,99.7937
709.6758,99.757
710.6401,99.7382
711.6043,99.7379
712.5685,99.7489
713.5328,99.7626
714.4970,99.7755
715.4612,99.77
716.4255,99.8006
717.3897,99.8485
718.3539,99.9092
719.3182,99.9672
720.2824,100.004
721.2466,100.009
722.2109,99.9862
723.1751,99.9506
724.1393,99.9197
725.1036,99.9053
726.0678,99.9106
727.0320,99.9315
727.9963,99.9596
728.9605,99.9861
729.9247,100.005
730.8890,100.013
731.8532,100.011
732.8174,99.9997
733.7817,99.9806
734.7459,99.9536
735.7101,99.9203
736.6744,99.886
737.6386,99.86
738.6028,99.8525
739.5671,99.8684
740.5313,99.9025
741.4955,99.9401
742.4598,99.963
743.4240,99.9581
744.3882,99.9229
745.3525,99.8652
746.3167,99.7985
747.2809,99.7365
748.2452,99.6898
749.2094,99.666
750.1736,99.6684
751.1379,99.7018
752.1021,99.7639
753.0663,99.8248
754.0306,99.8697
754.9948,99.8908
755.9590,99.8909
756.9233,99.8796
757.8875,99.8663
758.8517,99.8541
759.8160,99.8394
760.7802,99.8171
761.7444,99.787
762.7087,99.7563
763.6729,99.7357
764.6371,99.7327
765.6014,99.7467
766.5656,99.7707
767.5298,99.7955
768.4941,99.816
769.4583,99.8322
770.4225,99.8475
771.3868,99.8645
772.3510,99.8832
773.3152,99.9014
774.2795,99.9166
775.2437,99.9283
776.2079,99.9371
777.1722,99.9442
778.1364,99.9501
779.1006,99.9551
780.0649,99.9599
781.0291,99.9656
781.9933,99.974
782.9576,99.9857
783.9218,100.001
784.8860,100.018
785.8503,100.036
786.8145,100.049
787.7787,100.056
788.7430,100.05
789.7072,100.03
790.6714,99.9973
791.6357,99.9569
792.5999,99.9175
793.5641,99.8864
794.5284,99.8669
795.4926,99.8567
796.4568,99.849
797.4211,99.8359
798.3853,99.8121
799.3495,99.7763
800.3138,99.7315
801.2780,99.6829
802.2422,99.6356
803.2065,99.5936
804.1707,99.5595
805.1349,99.5357
806.0992,99.525
807.0634,99.5299
808.0276,99.5509
808.9919,99.5854
809.9561,99.6277
810.9203,99.6711
811.8846,99.7106
812.8488,99.7443
813.8130,99.7729
814.7773,99.7982
815.7415,99.8227
816.7057,99.8501
817.6700,99.885
818.6342,99.9325
819.5984,99.9949
820.5627,100.068
821.5269,100.144
822.4911,100.208
823.4554,100.252
824.4196,100.275
825.3839,100.282
826.3481,100.284
827.3123,100.291
828.2766,100.306
829.2408,100.329
830.2050,100.353
831.1693,100.373
832.1335,100.386
833.0977,100.392
834.0620,100.392
835.0262,100.389
835.9904,100.387
836.9547,100.384
837.9189,100.378
838.8831,100.365
839.8474,100.342
840.8116,100.307
841.7758,100.262
842.7401,100.211
843.7043,100.159
844.6685,100.114
845.6328,100.078
846.5970,100.05
847.5612,100.024
848.5255,99.9908
849.4897,99.9418
850.4539,99.8765
851.4182,99.8017
852.3824,99.7296
853.3466,99.6705
854.3109,99.6271
855.2751,99.5944
856.2393,99.5627
857.2036,99.525
858.1678,99.48
859.1320,99.432
860.0963,99.3866
861.0605,99.3473
862.0247,99.3139
862.9890,99.2837
863.9532,99.254
864.9174,99.2232
865.8817,99.1909
866.8459,99.157
867.8101,99.1204
868.7744,99.0789
869.7386,99.0288
870.7028,98.9669
871.6671,98.8928
872.6313,98.8115
873.5955,98.7334
874.5598,98.6713
875.5240,98.6343
876.4882,98.6231
877.4525,98.6289
878.4167,98.6372
879.3809,98.6338
880.3452,98.6096
881.3094,98.562
882.2736,98.4919
883.2379,98.4027
884.2021,98.2996
885.1663,98.1912
886.1306,98.0907
887.0948,98.0119
888.0590,97.9634
889.0233,97.9436
889.9875,97.9401
890.9517,97.9353
891.9160,97.9138
892.8802,97.87
893.8444,97.8091
894.8087,97.7435
895.7729,97.6865
896.7371,97.6476
897.7014,97.6305
898.6656,97.6342
899.6298,97.6548
900.5941,97.6874
901.5583,97.7264
902.5225,97.7665
903.4868,97.8041
904.4510,97.8371
905.4152,97.8655
906.3795,97.8893
907.3437,97.9068
908.3079,97.9134
909.2722,97.9038
910.2364,97.8753
911.2006,97.8303
912.1649,97.7765
913.1291,97.7233
914.0933,97.6769
915.0576,97.638
916.0218,97.6022
916.9860,97.5638
917.9503,97.5195
918.9145,97.4693
919.8787,97.4147
920.8430,97.3558
921.8072,97.2904
922.7714,97.2149
923.7357,97.1277
924.6999,97.0303
925.6641,96.9273
926.6284,96.8246
927.5926,96.7264
928.5568,96.6351
929.5211,96.551
930.4853,96.4732
931.4495,96.3995
932.4138,96.3266
933.3780,96.25
934.3422,96.1659
935.3065,96.0727
936.2707,95.9719
937.2349,95.8674
938.1992,95.7632
939.1634,95.6621
940.1276,95.5653
941.0919,95.4728
942.0561,95.3844
943.0203,95.3
943.9846,95.2185
944.9488,95.1377
945.9130,95.0539
946.8773,94.9638
947.8415,94.866
948.8057,94.7622
949.7700,94.6563
950.7342,94.5525
951.6984,94.4533
952.6627,94.3583
953.6269,94.2641
954.5911,94.1661
955.5554,94.0609
956.5196,93.9479
957.4838,93.829
958.4481,93.7081
959.4123,93.5882
960.3765,93.4706
961.3408,93.3549
962.3050,93.24
963.2692,93.126
964.2335,93.0135
965.1977,92.9024
966.1619,92.7903
967.1262,92.6723
968.0904,92.5426
969.0546,92.3977
970.0189,92.2386
970.9831,92.07
971.9473,91.898
972.9116,91.726
973.8758,91.5529
974.8400,91.3732
975.8043,91.1805
976.7685,90.9707
977.7327,90.7438
978.6970,90.5047
979.6612,90.2608
980.6254,90.0209
981.5897,89.7933
982.5539,89.5846
983.5181,89.3987
984.4824,89.2359
985.4466,89.0931
986.4108,88.9648
987.3751,88.8459
988.3393,88.7337
989.3035,88.6287
990.2678,88.5329
991.2320,88.4475
992.1962,88.3706
993.1605,88.2977
994.1247,88.2236
995.0889,88.1455
996.0532,88.0645
997.0174,87.9849
997.9816,87.9116
998.9459,87.8473
999.9101,87.7911
1000.8743,87.7385
1001.8386,87.684
1002.8028,87.6238
1003.7670,87.5576
1004.7313,87.489
1005.6955,87.4237
1006.6597,87.3663
1007.6240,87.3174
1008.5882,87.2726
1009.5524,87.2246
1010.5167,87.1664
1011.4809,87.0945
1012.4451,87.0107
1013.4094,86.9208
1014.3736,86.8324
1015.3378,86.7519
1016.3021,86.6826
1017.2663,86.6246
1018.2305,86.5758
1019.1948,86.5343
1020.1590,86.501
1021.1232,86.4816
1022.0875,86.4853
1023.0517,86.5215
1024.0160,86.5938
1024.9802,86.695
1025.9445,86.8074
1026.9087,86.9099
1027.8729,86.9882
1028.8372,87.0438
1029.8014,87.095
1030.7656,87.1682
1031.7299,87.2851
1032.6941,87.4541
1033.6583,87.6671
1034.6226,87.9057
1035.5868,88.1492
1036.5510,88.3837
1037.5153,88.6039
1038.4795,88.811
1039.4437,89.0074
1040.4080,89.1921
1041.3722,89.3604
1042.3364,89.5061
1043.3007,89.6252
1044.2649,89.7187
1045.2291,89.793
1046.1934,89.857
1047.1576,89.9185
1048.1218,89.9818
1049.0861,90.0471
1050.0503,90.1136
1051.0145,90.1833
1051.9788,90.2637
1052.9430,90.3661
1053.9072,90.5001
1054.8715,90.6677
1055.8357,90.8599
1056.7999,91.0597
1057.7642,91.2511
1058.7284,91.4295
1059.6926,91.6064
1060.6569,91.8046
1061.6211,92.0455
1062.5853,92.3358
1063.5496,92.6608
1064.5138,92.9882
1065.4780,93.2819
1066.4423,93.5197
1067.4065,93.7036
1068.3707,93.8565
1069.3350,94.0082
1070.2992,94.1801
1071.2634,94.3784
1072.2277,94.5957
1073.1919,94.817
1074.1561,95.0279
1075.1204,95.2182
1076.0846,95.3826
1077.0488,95.5189
1078.0131,95.6273
1078.9773,95.7097
1079.9415,95.7707
1080.9058,95.8167
1081.8700,95.8548
1082.8342,95.8905
1083.7985,95.926
1084.7627,95.9591
1085.7269,95.9837
1086.6912,95.993
1087.6554,95.9819
1088.6196,95.9509
1089.5839,95.9069
1090.5481,95.8605
1091.5123,95.8225
1092.4766,95.7996
1093.4408,95.7933
1094.4050,95.8016
1095.3693,95.822
1096.3335,95.8531
1097.2977,95.8944
1098.2620,95.9438
1099.2262,95.997
1100.1904,96.0471
1101.1547,96.0886
1102.1189,96.1198
1103.0831,96.144
1104.0474,96.1679
1105.0116,96.1974
1105.9758,96.2347
1106.9401,96.2782
1107.9043,96.3249
1108.8685,96.3739
1109.8328,96.4284
1110.7970,96.495
1111.7612,96.5802
1112.7255,96.6868
1113.6897,96.8116
1114.6539,96.9462
1115.6182,97.0795
1116.5824,97.2015
1117.5466,97.3052
1118.5109,97.388
1119.4751,97.4512
1120.4393,97.4992
1121.4036,97.5375
1122.3678,97.5722
1123.3320,97.6083
1124.2963,97.6492
1125.2605,97.6967
1126.2247,97.7506
1127.1890,97.8095
1128.1532,97.8709
1129.1174,97.931
1130.0817,97.9851
1131.0459,98.0275
1132.0101,98.0528
1132.9744,98.0569
1133.9386,98.0386
1134.9028,97.9998
1135.8671,97.9457
1136.8313,97.8839
1137.7955,97.8224
1138.7598,97.7688
1139.7240,97.7288
1140.6882,97.7047
1141.6525,97.695
1142.6167,97.6945
1143.5809,97.6959
1144.5452,97.6923
1145.5094,97.6796
1146.4736,97.6565
1147.4379,97.6242
1148.4021,97.5838
1149.3663,97.5361
1150.3306,97.4818
1151.2948,97.4237
1152.2590,97.368
1153.2233,97.3232
1154.1875,97.2982
1155.1517,97.2976
1156.1160,97.3205
1157.0802,97.361
1158.0444,97.411
1159.0087,97.4644
1159.9729,97.5201
1160.9371,97.5819
1161.9014,97.6575
1162.8656,97.7552
1163.8298,97.8812
1164.7941,98.0377
1165.7583,98.222
1166.7225,98.4274
1167.6868,98.6451
1168.6510,98.8652
1169.6152,99.0796
1170.5795,99.2813
1171.5437,99.4659
1172.5079,99.6302
1173.4722,99.7725
1174.4364,99.8927
1175.4006,99.9917
1176.3649,100.072
1177.3291,100.136
1178.2933,100.187
1179.2576,100.227
1180.2218,100.259
1181.1860,100.283
1182.1503,100.31
1183.1145,100.326
1184.0787,100.33
1185.0430,100.319
1186.0072,100.295
1186.9714,100.258
1187.9357,100.21
1188.8999,100.153
1189.8641,100.089
1190.8284,100.02
1191.7926,99.9458
1192.7568,99.8682
1193.7211,99.7867
1194.6853,99.7006
1195.6495,99.6091
1196.6138,99.5126
1197.5780,99.4128
1198.5422,99.3123
1199.5065,99.1952
1200.4707,99.1022
1201.4349,99.0116
1202.3992,98.9214
1203.3634,98.8306
1204.3276,98.7401
1205.2919,98.6537
1206.2561,98.5766
1207.2203,98.5121
1208.1846,98.4607
1209.1488,98.419
1210.1130,98.3815
1211.0773,98.3433
1212.0415,98.3022
1213.0057,98.2593
1213.9700,98.2177
1214.9342,98.1803
1215.8984,98.1479
1216.8627,98.1185
1217.8269,98.0887
1218.7911,98.0552
1219.7554,98.0166
1220.7196,97.974
1221.6838,97.9301
1222.6481,97.8878
1223.6123,97.8492
1224.5765,97.8147
1225.5408,97.7836
1226.5050,97.7543
1227.4692,97.7252
1228.4335,97.6949
1229.3977,97.6628
1230.3619,97.6285
1231.3262,97.5917
1232.2904,97.5523
1233.2546,97.5104
1234.2189,97.4673
1235.1831,97.4261
1236.1473,97.3911
1237.1116,97.3664
1238.0758,97.3533
1239.0400,97.3485
1240.0043,97.3442
1240.9685,97.331
1241.9327,97.303
1242.8970,97.2607
1243.8612,97.2116
1244.8254,97.166
1245.7897,97.1319
1246.7539,97.1105
1247.7181,97.0962
1248.6824,97.0796
1249.6466,97.0516
1250.6108,97.0073
1251.5751,96.947
1252.5393,96.8746
1253.5035,96.7964
1254.4678,96.7184
1255.4320,96.646
1256.3962,96.5827
1257.3605,96.5302
1258.3247,96.4878
1259.2889,96.4531
1260.2532,96.4225
1261.2174,96.3936
1262.1816,96.366
1263.1459,96.3414
1264.1101,96.3226
1265.0743,96.312
1266.0386,96.3113
1267.0028,96.322
1267.9670,96.3457
1268.9313,96.3847
1269.8955,96.4409
1270.8597,96.5143
1271.8240,96.6024
1272.7882,96.7002
1273.7524,96.8023
1274.7167,96.9043
1275.6809,97.0042
1276.6451,97.1014
1277.6094,97.1962
1278.5736,97.2883
1279.5378,97.3771
1280.5021,97.462
1281.4663,97.5435
1282.4305,97.6231
1283.3948,97.7025
1284.3590,97.7824
1285.3232,97.8619
1286.2875,97.9378
1287.2517,98.0059
1288.2159,98.0627
1289.1802,98.1066
1290.1444,98.1391
1291.1086,98.1636
1292.0729,98.184
1293.0371,98.2029
1294.0013,98.2206
1294.9656,98.2351
1295.9298,98.243
1296.8940,98.2409
1297.8583,98.2266
1298.8225,98.2005
1299.7867,98.1652
1300.7510,98.1248
1301.7152,98.0835
1302.6794,98.0442
1303.6437,98.0073
1304.6079,97.9715
1305.5721,97.9346
1306.5364,97.8946
1307.5006,97.8508
1308.4648,97.8043
1309.4291,97.7569
1310.3933,97.7109
1311.3575,97.668
1312.3218,97.6301
1313.2860,97.5984
1314.2502,97.5746
1315.2145,97.5604
1316.1787,97.5575
1317.1429,97.5673
1318.1072,97.5895
1319.0714,97.6218
1320.0356,97.6599
1320.9999,97.6994
1321.9641,97.7365
1322.9283,97.769
1323.8926,97.7956
1324.8568,97.8156
1325.8210,97.8287
1326.7853,97.8355
1327.7495,97.838
1328.7137,97.8386
1329.6780,97.8398
1330.6422,97.8434
1331.6064,97.8494
1332.5707,97.857
1333.5349,97.8662
1334.4991,97.8784
1335.4634,97.8972
1336.4276,97.9268
1337.3918,97.969
1338.3561,98.0195
1339.3203,98.0686
1340.2845,98.1084
1341.2488,98.1377
1342.2130,98.1613
1343.1772,98.1843
1344.1415,98.209
1345.1057,98.2345
1346.0699,98.2574
1347.0342,98.2732
1347.9984,98.2781
1348.9626,98.2709
1349.9269,98.2536
1350.8911,98.2305
1351.8553,98.2063
1352.8196,98.1839
1353.7838,98.1641
1354.7480,98.1445
1355.7123,98.1211
1356.6765,98.0909
1357.6407,98.054
1358.6050,98.0143
1359.5692,97.9788
1360.5334,97.9542
1361.4977,97.9434
1362.4619,97.943
1363.4261,97.9474
1364.3904,97.9541
1365.3546,97.9631
1366.3188,97.9743
1367.2831,97.987
1368.2473,97.9994
1369.2115,98.0116
1370.1758,98.0274
1371.1400,98.0558
1372.1042,98.1079
1373.0685,98.1905
1374.0327,98.2983
1374.9969,98.4145
1375.9612,98.5223
1376.9254,98.6165
1377.8896,98.7021
1378.8539,98.7865
1379.8181,98.8719
1380.7823,98.9535
1381.7466,99.0241
1382.7108,99.0798
1383.6750,99.124
1384.6393,99.1661
1385.6035,99.2157
1386.5677,99.2766
1387.5320,99.3451
1388.4962,99.4169
1389.4604,99.4911
1390.4247,99.5682
1391.3889,99.6466
1392.3531,99.7207
1393.3174,99.7792
1394.2816,99.8065
1395.2458,99.794
1396.2101,99.7509
1397.1743,99.7012
1398.1385,99.6653
1399.1028,99.6413
1400.0670,99.6297
1401.0313,99.6242
1401.9955,99.6202
1402.9597,99.6159
1403.9240,99.6093
1404.8882,99.5946
1405.8524,99.5645
1406.8167,99.5152
1407.7809,99.4485
1408.7451,99.3685
1409.7094,99.2788
1410.6736,99.1816
1411.6378,99.0788
1412.6021,98.9724
1413.5663,98.8637
1414.5305,98.7536
1415.4948,98.6442
1416.4590,98.5408
1417.4232,98.4478
1418.3875,98.3661
1419.3517,98.2964
1420.3159,98.2441
1421.2802,98.2123
1422.2444,98.1972
1423.2086,98.1917
1424.1729,98.1901
1425.1371,98.1897
1426.1013,98.1923
1427.0656,98.2035
1428.0298,98.2297
1428.9940,98.2715
1429.9583,98.3202
1430.9225,98.3613
1431.8867,98.3856
1432.8510,98.3966
1433.8152,98.4105
1434.7794,98.4488
1435.7437,98.5213
1436.7079,98.6117
1437.6721,98.69
1438.6364,98.742
1439.6006,98.7702
1440.5648,98.7795
1441.5291,98.772
1442.4933,98.7495
1443.4575,98.7147
1444.4218,98.6726
1445.3860,98.6289
1446.3502,98.5898
1447.3145,98.5593
1448.2787,98.5387
1449.2429,98.5264
1450.2072,98.5184
1451.1714,98.5084
1452.1356,98.4908
1453.0999,98.4678
1454.0641,98.4581
1455.0283,98.4981
1455.9926,98.6137
1456.9568,98.7559
1457.9210,98.832
1458.8853,98.839
1459.8495,98.8265
1460.8137,98.8158
1461.7780,98.813
1462.7422,98.8303
1463.7064,98.8818
1464.6707,98.9647
1465.6349,99.0529
1466.5991,99.1196
1467.5634,99.1565
1468.5276,99.1712
1469.4918,99.183
1470.4561,99.2214
1471.4203,99.3147
1472.3845,99.4595
1473.3488,99.6051
1474.3130,99.7052
1475.2772,99.7643
1476.2415,99.8069
1477.2057,99.8453
1478.1699,99.8812
1479.1342,99.9126
1480.0984,99.932
1481.0626,99.9328
1482.0269,99.9207
1482.9911,99.8936
1483.9553,99.8524
1484.9196,99.8025
1485.8838,99.7542
1486.8480,99.72
1487.8123,99.7038
1488.7765,99.6874
1489.7407,99.6455
1490.7050,99.5773
1491.6692,99.4989
1492.6334,99.4166
1493.5977,99.3276
1494.5619,99.2301
1495.5261,99.1247
1496.4904,99.0074
1497.4546,98.8687
1498.4188,98.7097
1499.3831,98.5462
1500.3473,98.3879
1501.3115,98.2302
1502.2758,98.0665
1503.2400,97.903
1504.2042,97.7674
1505.1685,97.7066
1506.1327,97.7412
1507.0969,97.7883
1508.0612,97.7586
1509.0254,97.7043
1509.9896,97.6836
1510.9539,97.6947
1511.9181,97.7245
1512.8823,97.7731
1513.8466,97.8517
1514.8108,97.9691
1515.7750,98.1197
1516.7393,98.2834
1517.7035,98.4424
1518.6677,98.5979
1519.6320,98.7658
1520.5962,98.9537
1521.5604,99.1413
1522.5247,99.2957
1523.4889,99.4006
1524.4531,99.4641
1525.4174,99.5036
1526.3816,99.5316
1527.3458,99.5507
1528.3101,99.558
1529.2743,99.5518
1530.2385,99.5366
1531.2028,99.5215
1532.1670,99.5126
1533.1312,99.5029
1534.0955,99.4781
1535.0597,99.4313
1536.0239,99.3689
1536.9882,99.3112
1537.9524,99.3001
1538.9166,99.3926
1539.8809,99.595
1540.8451,99.7653
1541.8093,99.7608
1542.7736,99.6498
1543.7378,99.5395
1544.7020,99.4584
1545.6663,99.3978
1546.6305,99.3666
1547.5947,99.3375
1548.5590,99.3079
1549.5232,99.2781
1550.4874,99.2489
1551.4517,99.2203
1552.4159,99.1906
1553.3801,99.1588
1554.3444,99.1297
1555.3086,99.1227
1556.2728,99.1773
1557.2371,99.3227
1558.2013,99.4749
1559.1655,99.4712
1560.1298,99.3555
1561.0940,99.2655
1562.0582,99.2258
1563.0225,99.2065
1563.9867,99.1838
1564.9509,99.1511
1565.9152,99.1136
1566.8794,99.0792
1567.8436,99.0494
1568.8079,99.0143
1569.7721,98.9636
1570.7363,98.8983
1571.7006,98.8262
1572.6648,98.7539
1573.6290,98.6893
1574.5933,98.6429
1575.5575,98.6158
1576.5217,98.5909
1577.4860,98.5526
1578.4502,98.5033
1579.4144,98.4477
1580.3787,98.3849
1581.3429,98.3148
1582.3071,98.2417
1583.2714,98.172
1584.2356,98.1098
1585.1998,98.0552
1586.1641,98.0061
1587.1283,97.9611
1588.0925,97.92
1589.0568,97.8832
1590.0210,97.8514
1590.9852,97.8245
1591.9495,97.8023
1592.9137,97.7844
1593.8779,97.769
1594.8422,97.7533
1595.8064,97.7344
1596.7706,97.7116
1597.7349,97.6869
1598.6991,97.6642
1599.6633,97.6472
1600.6276,97.6381
1601.5918,97.6363
1602.5560,97.639
1603.5203,97.6427
1604.4845,97.6454
1605.4487,97.6481
1606.4130,97.654
1607.3772,97.666
1608.3414,97.683
1609.3057,97.6982
1610.2699,97.7028
1611.2341,97.6915
1612.1984,97.6659
1613.1626,97.6375
1614.1268,97.6269
1615.0911,97.6537
1616.0553,97.7137
1617.0195,97.7736
1617.9838,97.807
1618.9480,97.8159
1619.9122,97.8145
1620.8765,97.8164
1621.8407,97.8309
1622.8049,97.8569
1623.7692,97.8812
1624.7334,97.8911
1625.6976,97.8871
1626.6619,97.8791
1627.6261,97.8742
1628.5903,97.8707
1629.5546,97.8594
1630.5188,97.8314
1631.4830,97.7856
1632.4473,97.7349
1633.4115,97.7074
1634.3757,97.7328
1635.3400,97.8036
1636.3042,97.8626
1637.2684,97.8762
1638.2327,97.8645
1639.1969,97.8479
1640.1611,97.8268
1641.1254,97.7948
1642.0896,97.7497
1643.0538,97.7012
1644.0181,97.6735
1644.9823,97.6952
1645.9465,97.7652
1646.9108,97.8319
1647.8750,97.8434
1648.8392,97.7985
1649.8035,97.7288
1650.7677,97.6832
1651.7319,97.7243
1652.6962,97.8687
1653.6604,98.0075
1654.6246,98.0512
1655.5889,98.0459
1656.5531,98.0354
1657.5173,98.023
1658.4816,98.008
1659.4458,98.0013
1660.4100,98.0195
1661.3743,98.068
1662.3385,98.1294
1663.3027,98.1776
1664.2670,98.2007
1665.2312,98.2053
1666.1954,98.2095
1667.1597,98.238
1668.1239,98.3114
1669.0881,98.4235
1670.0524,98.5337
1671.0166,98.6033
1671.9808,98.6315
1672.9451,98.6432
1673.9093,98.6633
1674.8735,98.7036
1675.8378,98.758
1676.8020,98.8089
1677.7662,98.8413
1678.7305,98.8482
1679.6947,98.8335
1680.6589,98.8142
1681.6232,98.8212
1682.5874,98.88
1683.5516,98.9697
1684.5159,99.0312
1685.4801,99.0505
1686.4443,99.0583
1687.4086,99.0715
1688.3728,99.0861
1689.3370,99.0928
1690.3013,99.0849
1691.2655,99.0613
1692.2297,99.0268
1693.1940,98.9916
1694.1582,98.9682
1695.1224,98.9667
1696.0867,98.9885
1697.0509,99.0241
1698.0151,99.0601
1698.9794,99.0893
1699.9436,99.1152
1700.9078,99.1452
1701.8721,99.1817
1702.8363,99.2199
1703.8005,99.2534
1704.7648,99.2774
1705.7290,99.2879
1706.6932,99.2827
1707.6575,99.2622
1708.6217,99.2295
1709.5859,99.1862
1710.5502,99.1322
1711.5144,99.0679
1712.4786,98.9981
1713.4429,98.9357
1714.4071,98.9005
1715.3713,98.9072
1716.3356,98.9393
1717.2998,98.9505
1718.2640,98.9224
1719.2283,98.8785
1720.1925,98.8384
1721.1567,98.8027
1722.1210,98.766
1723.0852,98.7255
1724.0494,98.6817
1725.0137,98.6365
1725.9779,98.5918
1726.9421,98.5472
1727.9064,98.5014
1728.8706,98.4536
1729.8348,98.4089
1730.7991,98.3816
1731.7633,98.391
1732.7275,98.4424
1733.6918,98.5105
1734.6560,98.5626
1735.6202,98.5927
1736.5845,98.6118
1737.5487,98.6303
1738.5129,98.6556
1739.4772,98.6922
1740.4414,98.737
1741.4056,98.78
1742.3699,98.812
1743.3341,98.8305
1744.2983,98.8398
1745.2626,98.8463
1746.2268,98.8583
1747.1910,98.8852
1748.1553,98.9331
1749.1195,98.997
1750.0837,99.0617
1751.0480,99.1152
1752.0122,99.1573
1752.9764,99.1934
1753.9407,99.2282
1754.9049,99.2638
1755.8691,99.2999
1756.8334,99.334
1757.7976,99.3644
1758.7618,99.3935
1759.7261,99.4277
1760.6903,99.4714
1761.6545,99.5207
1762.6188,99.5651
1763.5830,99.5949
1764.5472,99.608
1765.5115,99.6091
1766.4757,99.6065
1767.4399,99.6092
1768.4042,99.6258
1769.3684,99.662
1770.3326,99.7174
1771.2969,99.7803
1772.2611,99.8306
1773.2253,99.8556
1774.1896,99.8597
1775.1538,99.8545
1776.1180,99.8483
1777.0823,99.8481
1778.0465,99.8554
1779.0107,99.8696
1779.9750,99.8863
1780.9392,99.8994
1781.9034,99.9065
1782.8677,99.9102
1783.8319,99.9144
1784.7961,99.9193
1785.7604,99.9205
1786.7246,99.9126
1787.6888,99.8936
1788.6531,99.8694
1789.6173,99.8533
1790.5815,99.8595
1791.5458,99.8903
1792.5100,99.9293
1793.4742,99.9567
1794.4385,99.9668
1795.4027,99.9638
1796.3669,99.9544
1797.3312,99.9453
1798.2954,99.9431
1799.2596,99.9511
1800.2239,99.9667
1801.1881,99.9833
1802.1523,99.9949
1803.1166,99.9992
1804.0808,99.9959
1805.0450,99.9863
1806.0093,99.9731
1806.9735,99.9612
1807.9377,99.9564
1808.9020,99.9628
1809.8662,99.979
1810.8304,99.9983
1811.7947,100.012
1812.7589,100.017
1813.7231,100.013
1814.6874,100.006
1815.6516,100.001
1816.6158,99.9999
1817.5801,100.001
1818.5443,100.001
1819.5085,99.9933
1820.4728,99.9789
1821.4370,99.9611
1822.4012,99.9455
1823.3655,99.9357
1824.3297,99.9319
1825.2939,99.9317
1826.2582,99.9342
1827.2224,99.9415
1828.1866,99.9561
1829.1509,99.9764
1830.1151,99.9954
1831.0793,100.007
1832.0436,100.009
1833.0078,100.007
1833.9720,100.004
1834.9363,100.005
1835.9005,100.009
1836.8647,100.012
1837.8290,100.005
1838.7932,99.9851
1839.7574,99.9548
1840.7217,99.9234
1841.6859,99.9047
1842.6501,99.9107
1843.6144,99.9413
1844.5786,99.9815
1845.5428,100.014
1846.5071,100.031
1847.4713,100.037
1848.4355,100.037
1849.3998,100.034
1850.3640,100.031
1851.3282,100.027
1852.2925,100.024
1853.2567,100.02
1854.2209,100.016
1855.1852,100.011
1856.1494,100.006
1857.1136,100.002
1858.0779,99.9998
1859.0421,99.9993
1860.0063,100
1860.9706,100.001
1861.9348,99.9976
1862.8990,99.9882
1863.8633,99.9734
1864.8275,99.9584
1865.7917,99.9526
1866.7560,99.9646
1867.7202,99.9941
1868.6844,100.029
1869.6487,100.054
1870.6129,100.065
1871.5771,100.064
1872.5414,100.059
1873.5056,100.052
1874.4698,100.046
1875.4341,100.043
1876.3983,100.041
1877.3625,100.039
1878.3268,100.036
1879.2910,100.034
1880.2552,100.032
1881.2195,100.032
1882.1837,100.031
1883.1479,100.028
1884.1122,100.02
1885.0764,100.011
1886.0406,100.005
1887.0049,100.007
1887.9691,100.019
1888.9333,100.037
1889.8976,100.054
1890.8618,100.063
1891.8260,100.064
1892.7903,100.061
1893.7545,100.059
1894.7188,100.061
1895.6830,100.065
1896.6472,100.069
1897.6115,100.069
1898.5757,100.067
1899.5399,100.064
1900.5042,100.064
1901.4684,100.067
1902.4326,100.072
1903.3969,100.076
1904.3611,100.077
1905.3253,100.075
1906.2896,100.073
1907.2538,100.074
1908.2180,100.08
1909.1823,100.089
1910.1465,100.099
1911.1107,100.103
1912.0750,100.1
1913.0392,100.09
1914.0034,100.078
1914.9677,100.07
1915.9319,100.068
1916.8961,100.073
1917.8604,100.081
1918.8246,100.088
1919.7888,100.095
1920.7531,100.104
1921.7173,100.115
1922.6815,100.129
1923.6458,100.14
1924.6100,100.143
1925.5742,100.137
1926.5385,100.126
1927.5027,100.114
1928.4669,100.106
1929.4312,100.105
1930.3954,100.109
1931.3596,100.115
1932.3239,100.12
1933.2881,100.123
1934.2523,100.123
1935.2166,100.121
1936.1808,100.116
1937.1450,100.106
1938.1093,100.094
1939.0735,100.083
1940.0377,100.077
1941.0020,100.079
1941.9662,100.089
1942.9304,100.101
1943.8947,100.112
1944.8589,100.118
1945.8231,100.119
1946.7874,100.118
1947.7516,100.116
1948.7158,100.113
1949.6801,100.109
1950.6443,100.104
1951.6085,100.099
1952.5728,100.095
1953.5370,100.094
1954.5012,100.094
1955.4655,100.093
1956.4297,100.091
1957.3939,100.088
1958.3582,100.086
1959.3224,100.087
1960.2866,100.09
1961.2509,100.094
1962.2151,100.097
1963.1793,100.097
1964.1436,100.094
1965.1078,100.091
1966.0720,100.087
1967.0363,100.084
1968.0005,100.081
1968.9647,100.079
1969.9290,100.077
1970.8932,100.078
1971.8574,100.082
1972.8217,100.089
1973.7859,100.096
1974.7501,100.1
1975.7144,100.099
1976.6786,100.095
1977.6428,100.089
1978.6071,100.085
1979.5713,100.082
1980.5355,100.081
1981.4998,100.081
1982.4640,100.081
1983.4282,100.081
1984.3925,100.082
1985.3567,100.082
1986.3209,100.081
1987.2852,100.078
1988.2494,100.075
1989.2136,100.073
1990.1779,100.073
1991.1421,100.078
1992.1063,100.085
1993.0706,100.091
1994.0348,100.094
1994.9990,100.094
1995.9633,100.091
1996.9275,100.089
1997.8917,100.088
1998.8560,100.087
1999.8202,100.087
2000.7844,100.085
2001.7487,100.081
2002.7129,100.075
2003.6771,100.07
2004.6414,100.066
2005.6056,100.064
2006.5698,100.065
2007.5341,100.067
2008.4983,100.067
2009.4625,100.064
2010.4268,100.058
2011.3910,100.05
2012.3552,100.043
2013.3195,100.039
2014.2837,100.04
2015.2479,100.046
2016.2122,100.054
2017.1764,100.061
2018.1406,100.063
2019.1049,100.06
2020.0691,100.055
2021.0333,100.05
2021.9976,100.049
2022.9618,100.051
2023.9260,100.056
2024.8903,100.058
2025.8545,100.056
2026.8187,100.049
2027.7830,100.041
2028.7472,100.034
2029.7114,100.031
2030.6757,100.033
2031.6399,100.037
2032.6041,100.04
2033.5684,100.04
2034.5326,100.038
2035.4968,100.034
2036.4611,100.032
2037.4253,100.031
2038.3895,100.032
2039.3538,100.034
2040.3180,100.036
2041.2822,100.036
2042.2465,100.035
2043.2107,100.034
2044.1749,100.031
2045.1392,100.028
2046.1034,100.025
2047.0676,100.023
2048.0320,100.021
2048.9961,100.021
2049.9604,100.021
2050.9246,100.023
2051.8889,100.025
2052.8530,100.027
2053.8174,100.029
2054.7815,100.028
2055.7458,100.027
2056.7100,100.025
2057.6743,100.024
2058.6384,100.024
2059.6028,100.026
2060.5669,100.029
2061.5313,100.033
2062.4954,100.037
2063.4597,100.039
2064.4238,100.038
2065.3882,100.035
2066.3523,100.03
2067.3167,100.025
2068.2808,100.021
2069.2451,100.019
2070.2092,100.019
2071.1736,100.021
2072.1377,100.022
2073.1021,100.024
2074.0662,100.026
2075.0305,100.027
2075.9946,100.028
2076.9590,100.027
2077.9231,100.024
2078.8875,100.018
2079.8516,100.011
2080.8159,100.004
2081.7800,100
2082.7444,99.9996
2083.7085,100.004
2084.6729,100.012
2085.6370,100.021
2086.6013,100.03
2087.5654,100.035
2088.5298,100.036
2089.4939,100.034
2090.4583,100.031
2091.4224,100.027
2092.3867,100.024
2093.3508,100.023
2094.3152,100.022
2095.2793,100.023
2096.2437,100.023
2097.2078,100.023
2098.1721,100.023
2099.1362,100.024
2100.1006,100.025
2101.0647,100.028
2102.0291,100.031
2102.9932,100.034
2103.9575,100.034
2104.9216,100.031
2105.8860,100.025
2106.8501,100.018
2107.8145,100.013
2108.7786,100.014
2109.7429,100.019
2110.7070,100.027
2111.6714,100.036
2112.6355,100.041
2113.5999,100.042
2114.5640,100.037
2115.5283,100.029
2116.4924,100.02
2117.4568,100.014
2118.4209,100.011
2119.3853,100.013
2120.3494,100.018
2121.3137,100.023
2122.2778,100.027
2123.2422,100.027
2124.2063,100.026
2125.1707,100.024
2126.1348,100.023
2127.0991,100.023
2128.0632,100.024
2129.0276,100.025
2129.9917,100.024
2130.9561,100.022
2131.9202,100.02
2132.8845,100.019
2133.8486,100.021
2134.8130,100.024
2135.7771,100.029
2136.7415,100.032
2137.7056,100.032
2138.6699,100.028
2139.6340,100.023
2140.5984,100.018
2141.5625,100.016
2142.5269,100.016
2143.4910,100.018
2144.4553,100.02
2145.4194,100.022
2146.3838,100.024
2147.3479,100.025
2148.3123,100.026
2149.2764,100.028
2150.2407,100.029
2151.2048,100.031
2152.1692,100.032
2153.1333,100.034
2154.0977,100.036
2155.0618,100.037
2156.0261,100.037
2156.9902,100.034
2157.9546,100.031
2158.9187,100.028
2159.8831,100.027
2160.8472,100.029
2161.8115,100.035
2162.7756,100.042
2163.7400,100.047
2164.7041,100.05
2165.6685,100.05
2166.6326,100.049
2167.5969,100.047
2168.5610,100.046
2169.5254,100.046
2170.4895,100.047
2171.4539,100.047
2172.4180,100.047
2173.3823,100.047
2174.3464,100.048
2175.3108,100.049
2176.2749,100.05
2177.2393,100.052
2178.2034,100.054
2179.1677,100.056
2180.1318,100.059
2181.0962,100.063
2182.0603,100.069
2183.0247,100.076
2183.9888,100.082
2184.9531,100.087
2185.9172,100.089
2186.8816,100.087
2187.8457,100.082
2188.8101,100.076
2189.7742,100.073
2190.7385,100.073
2191.7026,100.078
2192.6670,100.085
2193.6311,100.09
2194.5955,100.092
2195.5596,100.091
2196.5239,100.088
2197.4880,100.085
2198.4524,100.084
2199.4165,100.086
2200.3809,100.089
2201.3450,100.091
2202.3093,100.092
2203.2734,100.091
2204.2378,100.091
2205.2019,100.09
2206.1663,100.089
2207.1304,100.088
2208.0947,100.088
2209.0588,100.09
2210.0232,100.095
2210.9873,100.102
2211.9517,100.11
2212.9158,100.118
2213.8801,100.121
2214.8442,100.119
2215.8086,100.114
2216.7727,100.108
2217.7371,100.103
2218.7012,100.101
2219.6655,100.102
2220.6296,100.105
2221.5940,100.106
2222.5581,100.104
2223.5225,100.1
2224.4866,100.096
2225.4509,100.094
2226.4150,100.094
2227.3794,100.098
2228.3435,100.103
2229.3079,100.106
2230.2720,100.107
2231.2363,100.105
2232.2004,100.101
2233.1648,100.099
2234.1289,100.098
2235.0933,100.1
2236.0574,100.102
2237.0217,100.104
2237.9858,100.104
2238.9502,100.102
2239.9143,100.1
2240.8787,100.099
2241.8428,100.099
2242.8071,100.101
2243.7712,100.103
2244.7356,100.105
2245.6997,100.106
2246.6641,100.104
2247.6282,100.098
2248.5925,100.09
2249.5566,100.081
2250.5210,100.072
2251.4851,100.067
2252.4495,100.065
2253.4136,100.067
2254.3779,100.069
2255.3420,100.071
2256.3064,100.071
2257.2705,100.07
2258.2349,100.067
2259.1990,100.063
2260.1633,100.057
2261.1274,100.048
2262.0918,100.039
2263.0559,100.032
2264.0203,100.028
2264.9844,100.027
2265.9487,100.029
2266.9128,100.033
2267.8772,100.037
2268.8413,100.039
2269.8057,100.021
2270.7698,100.002
2271.7341,99.9802
2272.6982,99.957
2273.6626,99.9336
2274.6267,99.9111
2275.5911,99.8903
2276.5552,99.8707
2277.5195,99.8513
2278.4836,99.8311
2279.4480,99.8099
2280.4121,99.7879
2281.3765,99.7657
2282.3406,99.7428
2283.3049,99.7184
2284.2690,99.6908
2285.2334,99.6587
2286.1975,99.6212
2287.1619,99.5781
2288.1260,99.5298
2289.0903,99.4774
2290.0544,99.4226
2291.0188,99.3678
2291.9829,99.315
2292.9473,99.2655
2293.9114,99.2193
2294.8757,99.1753
2295.8398,99.1314
2296.8042,99.0854
2297.7683,99.0353
2298.7327,98.9794
2299.6968,98.916
2300.6611,98.8437
2301.6252,98.7613
2302.5896,98.6682
2303.5537,98.5655
2304.5181,98.4558
2305.4822,98.343
2306.4465,98.2309
2307.4106,98.1222
2308.3750,98.0183
2309.3391,97.9197
2310.3035,97.8276
2311.2676,97.743
2312.2319,97.6656
2313.1960,97.5916
2314.1604,97.5131
2315.1245,97.4202
2316.0889,97.3059
2317.0530,97.1699
2318.0173,97.0203
2318.9814,96.8719
2319.9458,96.7419
2320.9099,96.6449
2321.8743,96.5899
2322.8384,96.5792
2323.8027,96.609
2324.7668,96.6702
2325.7312,96.7501
2326.6953,96.8341
2327.6597,96.9088
2328.6238,96.9635
2329.5881,96.9931
2330.5522,96.9977
2331.5166,96.9815
2332.4807,96.9491
2333.4451,96.9049
2334.4092,96.8558
2335.3735,96.8132
2336.3376,96.7933
2337.3020,96.8107
2338.2661,96.8713
2339.2305,96.9695
2340.1946,97.0874
2341.1589,97.1922
2342.1230,97.2325
2343.0874,97.1632
2344.0515,97.005
2345.0159,96.8515
2345.9800,96.7734
2346.9443,96.7535
2347.9084,96.7233
2348.8728,96.6275
2349.8369,96.4629
2350.8013,96.2862
2351.7654,96.2001
2352.7297,96.3081
2353.6938,96.6495
2354.6582,97.1983
2355.6223,97.8504
2356.5867,98.5252
2357.5508,99.1829
2358.5151,99.7439
2359.4792,100.087
2360.4436,100.129
2361.4077,99.8814
2362.3721,99.4362
2363.3362,98.9084
2364.3005,98.3993
2365.2646,97.9775
2366.2290,97.6683
2367.1931,97.4567
2368.1575,97.308
2369.1216,97.1919
2370.0859,97.0967
2371.0500,97.0284
2372.0144,97.0006
2372.9785,97.0249
2373.9429,97.105
2374.9070,97.2365
2375.8713,97.4099
2376.8354,97.6134
2377.7998,97.836
2378.7639,98.0683
2379.7283,98.3021
2380.6924,98.5299
2381.6567,98.7442
2382.6208,98.9381
2383.5852,99.1065
2384.5493,99.2467
2385.5137,99.359
2386.4778,99.4453
2387.4421,99.5088
2388.4063,99.5529
2389.3706,99.5816
2390.3347,99.5997
2391.2991,99.613
2392.2632,99.6284
2393.2275,99.652
2394.1917,99.6876
2395.1560,99.735
2396.1201,99.7904
2397.0845,99.8351
2398.0486,99.8542
2399.0129,99.8639
2399.9771,99.8643
2400.9414,99.8587
2401.9055,99.8517
2402.8699,99.8462
2403.8340,99.8422
2404.7983,99.8376
2405.7625,99.83
2406.7268,99.8196
2407.6909,99.8093
2408.6553,99.8035
2409.6194,99.8057
2410.5837,99.8165
2411.5479,99.8332
2412.5122,99.851
2413.4763,99.8648
2414.4407,99.8707
2415.4048,99.8669
2416.3691,99.8544
2417.3333,99.8363
2418.2976,99.8169
2419.2617,99.801
2420.2261,99.7917
2421.1902,99.7898
2422.1545,99.7937
2423.1187,99.8006
2424.0830,99.808
2425.0471,99.8149
2426.0115,99.8215
2426.9756,99.8279
2427.9399,99.8337
2428.9041,99.8371
2429.8684,99.8356
2430.8325,99.8281
2431.7969,99.8151
2432.7610,99.7994
2433.7253,99.7851
2434.6895,99.7759
2435.6538,99.7737
2436.6179,99.7779
2437.5823,99.7858
2438.5464,99.7943
2439.5107,99.8014
2440.4749,99.806
2441.4392,99.8089
2442.4033,99.811
2443.3677,99.8129
2444.3318,99.8142
2445.2961,99.814
2446.2603,99.8113
2447.2246,99.8056
2448.1887,99.7982
2449.1531,99.7912
2450.1172,99.7873
2451.0815,99.7883
2452.0457,99.7941
2453.0100,99.8025
2453.9741,99.8101
2454.9385,99.8142
2455.9026,99.8136
2456.8669,99.8094
2457.8311,99.8038
2458.7954,99.7988
2459.7595,99.7953
2460.7239,99.7929
2461.6880,99.7907
2462.6523,99.788
2463.6165,99.785
2464.5808,99.7829
2465.5449,99.7829
2466.5093,99.7856
2467.4734,99.7908
2468.4377,99.7969
2469.4019,99.8014
2470.3662,99.8018
2471.3303,99.7968
2472.2947,99.7869
2473.2588,99.7747
2474.2231,99.764
2475.1873,99.7582
2476.1516,99.7593
2477.1157,99.7669
2478.0801,99.7785
2479.0442,99.791
2480.0085,99.8012
2480.9727,99.8071
2481.9370,99.8087
2482.9011,99.8071
2483.8655,99.8043
2484.8296,99.8016
2485.7939,99.7997
2486.7581,99.7979
2487.7224,99.795
2488.6865,99.7904
2489.6509,99.7838
2490.6150,99.7764
2491.5793,99.7697
2492.5435,99.7657
2493.5078,99.766
2494.4719,99.7709
2495.4363,99.7793
2496.4004,99.7884
2497.3647,99.7951
2498.3289,99.7971
2499.2932,99.7938
2500.2573,99.7867
2501.2217,99.7782
2502.1858,99.7699
2503.1501,99.7624
2504.1143,99.7554
2505.0786,99.7494
2506.0427,99.7459
2507.0071,99.7473
2507.9712,99.7545
2508.9355,99.7662
2509.8997,99.778
2510.8640,99.785
2511.8281,99.7842
2512.7925,99.776
2513.7566,99.764
2514.7209,99.7526
2515.6851,99.7452
2516.6494,99.7428
2517.6135,99.7448
2518.5779,99.75
2519.5420,99.7574
2520.5063,99.7659
2521.4705,99.7743
2522.4348,99.781
2523.3989,99.7849
2524.3633,99.7856
2525.3274,99.7841
2526.2917,99.7817
2527.2559,99.7792
2528.2202,99.7763
2529.1843,99.7723
2530.1487,99.7668
2531.1128,99.7604
2532.0771,99.7547
2533.0413,99.7517
2534.0056,99.753
2534.9697,99.759
2535.9341,99.7692
2536.8982,99.7819
2537.8625,99.7952
2538.8267,99.8075
2539.7910,99.8176
2540.7551,99.8245
2541.7195,99.8271
2542.6836,99.824
2543.6479,99.8138
2544.6121,99.7963
2545.5764,99.7735
2546.5405,99.7499
2547.5049,99.7319
2548.4690,99.7256
2549.4333,99.7343
2550.3975,99.7569
2551.3618,99.7884
2552.3259,99.8207
2553.2903,99.8462
2554.2544,99.8593
2555.2188,99.8578
2556.1829,99.8429
2557.1472,99.8183
2558.1113,99.7883
2559.0757,99.7577
2560.0398,99.7306
2561.0042,99.7109
2561.9683,99.7021
2562.9326,99.7067
2563.8967,99.7252
2564.8611,99.7558
2565.8252,99.7938
2566.7896,99.8326
2567.7537,99.8653
2568.7180,99.8855
2569.6821,99.8885
2570.6465,99.8723
2571.6106,99.8379
2572.5750,99.7903
2573.5391,99.7388
2574.5034,99.6952
2575.4675,99.671
2576.4319,99.6736
2577.3960,99.7032
2578.3604,99.7521
2579.3245,99.808
2580.2888,99.8574
2581.2529,99.8904
2582.2173,99.9022
2583.1814,99.8928
2584.1458,99.866
2585.1099,99.8274
2586.0742,99.7833
2587.0383,99.7404
2588.0027,99.7054
2588.9668,99.6841
2589.9312,99.6799
2590.8953,99.6937
2591.8596,99.7228
2592.8237,99.7621
2593.7881,99.8047
2594.7522,99.8434
2595.7166,99.8722
2596.6807,99.8868
2597.6450,99.8851
2598.6091,99.8674
2599.5735,99.8362
2600.5376,99.7961
2601.5020,99.7535
2602.4661,99.716
2603.4304,99.6909
2604.3945,99.6834
2605.3589,99.6953
2606.3230,99.7241
2607.2874,99.7636
2608.2515,99.8055
2609.2158,99.842
2610.1799,99.8668
2611.1443,99.8759
2612.1084,99.868
2613.0728,99.8441
2614.0369,99.8074
2615.0012,99.7635
2615.9653,99.7201
2616.9297,99.6849
2617.8938,99.6645
2618.8582,99.6627
2619.8223,99.6798
2620.7866,99.7129
2621.7507,99.7565
2622.7151,99.803
2623.6792,99.8438
2624.6436,99.8701
2625.6077,99.8751
2626.5720,99.8562
2627.5361,99.8162
2628.5005,99.7631
2629.4646,99.7077
2630.4290,99.661
2631.3931,99.6314
2632.3574,99.6233
2633.3215,99.6366
2634.2859,99.6676
2635.2500,99.71
2636.2144,99.7559
2637.1785,99.7976
2638.1428,99.8286
2639.1069,99.8448
2640.0713,99.8442
2641.0354,99.8275
2641.9998,99.797
2642.9639,99.757
2643.9282,99.7142
2644.8923,99.6764
2645.8567,99.6513
2646.8208,99.6442
2647.7852,99.6558
2648.7493,99.6822
2649.7136,99.7164
2650.6777,99.7505
2651.6421,99.7781
2652.6062,99.795
2653.5706,99.7994
2654.5347,99.7904
2655.4990,99.7689
2656.4631,99.7374
2657.4275,99.7001
2658.3916,99.6631
2659.3560,99.633
2660.3201,99.6147
2661.2844,99.6107
2662.2485,99.6203
2663.2129,99.6399
2664.1770,99.6646
2665.1414,99.6895
2666.1055,99.7106
2667.0698,99.7256
2668.0339,99.7334
2668.9983,99.7333
2669.9624,99.7248
2670.9268,99.7078
2671.8909,99.6828
2672.8552,99.6526
2673.8193,99.6214
2674.7837,99.5951
2675.7478,99.5791
2676.7122,99.5771
2677.6763,99.5898
2678.6406,99.615
2679.6047,99.6474
2680.5691,99.6803
2681.5332,99.7063
2682.4976,99.7191
2683.4617,99.715
2684.4260,99.6942
2685.3901,99.6607
2686.3545,99.6217
2687.3186,99.5851
2688.2830,99.5571
2689.2471,99.5414
2690.2114,99.5382
2691.1755,99.5458
2692.1399,99.5614
2693.1040,99.5817
2694.0684,99.6039
2695.0325,99.6248
2695.9968,99.641
2696.9609,99.6493
2697.9253,99.6467
2698.8894,99.6318
2699.8538,99.6055
2700.8179,99.5714
2701.7822,99.5357
2702.7463,99.5056
2703.7107,99.4877
2704.6748,99.4852
2705.6392,99.4972
2706.6033,99.5193
2707.5676,99.5451
2708.5317,99.569
2709.4961,99.5868
2710.4602,99.5965
2711.4246,99.5974
2712.3887,99.5893
2713.3530,99.5734
2714.3171,99.5521
2715.2815,99.5297
2716.2456,99.5106
2717.2100,99.4986
2718.1741,99.4949
2719.1384,99.4985
2720.1025,99.5068
2721.0669,99.5172
2722.0310,99.5277
2722.9954,99.5366
2723.9595,99.5427
2724.9238,99.5445
2725.8879,99.5413
2726.8523,99.5332
2727.8164,99.5213
2728.7808,99.5072
2729.7449,99.4923
2730.7092,99.4779
2731.6733,99.4649
2732.6377,99.4548
2733.6018,99.4493
2734.5662,99.4501
2735.5303,99.4573
2736.4946,99.4695
2737.4587,99.4837
2738.4231,99.4965
2739.3872,99.5051
2740.3516,99.5075
2741.3157,99.5036
2742.2800,99.4942
2743.2441,99.4816
2744.2085,99.4683
2745.1726,99.4567
2746.1370,99.4483
2747.1011,99.4434
2748.0654,99.4414
2749.0295,99.4416
2749.9939,99.4439
2750.9580,99.4485
2751.9224,99.4556
2752.8865,99.4646
2753.8508,99.4736
2754.8149,99.4804
2755.7793,99.4829
2756.7434,99.4802
2757.7078,99.4727
2758.6719,99.4619
2759.6362,99.4498
2760.6003,99.4381
2761.5647,99.4282
2762.5288,99.4213
2763.4932,99.418
2764.4573,99.4186
2765.4216,99.4229
2766.3857,99.4298
2767.3501,99.438
2768.3142,99.4454
2769.2786,99.4496
2770.2427,99.4485
2771.2070,99.4408
2772.1711,99.4268
2773.1355,99.4086
2774.0996,99.3893
2775.0640,99.3721
2776.0281,99.3589
2776.9924,99.3503
2777.9565,99.346
2778.9209,99.3454
2779.8850,99.3482
2780.8494,99.3545
2781.8135,99.3641
2782.7778,99.3757
2783.7419,99.3868
2784.7063,99.3944
2785.6704,99.3955
2786.6348,99.3886
2787.5989,99.3739
2788.5632,99.3533
2789.5273,99.3303
2790.4917,99.309
2791.4558,99.2931
2792.4202,99.2851
2793.3843,99.2856
2794.3486,99.2932
2795.3127,99.3049
2796.2771,99.3173
2797.2412,99.3269
2798.2056,99.3314
2799.1697,99.3298
2800.1340,99.3222
2801.0981,99.31
2802.0625,99.2948
2803.0266,99.2784
2803.9910,99.2625
2804.9551,99.2486
2805.9194,99.2376
2806.8835,99.2297
2807.8479,99.2242
2808.8120,99.2198
2809.7764,99.2154
2810.7405,99.2106
2811.7048,99.2063
2812.6689,99.2034
2813.6333,99.2023
2814.5974,99.2016
2815.5618,99.1983
2816.5259,99.1897
2817.4902,99.1747
2818.4543,99.1552
2819.4187,99.135
2820.3828,99.1182
2821.3472,99.1068
2822.3113,99.1005
2823.2756,99.0966
2824.2397,99.0923
2825.2041,99.0855
2826.1682,99.0758
2827.1326,99.0644
2828.0967,99.0522
2829.0610,99.0402
2830.0251,99.028
2830.9895,99.0151
2831.9536,99.001
2832.9180,98.9867
2833.8821,98.9742
2834.8464,98.9665
2835.8105,98.9664
2836.7749,98.9753
2837.7390,98.9924
2838.7034,99.016
2839.6675,99.0437
2840.6318,99.0742
2841.5959,99.108
2842.5603,99.1468
2843.5244,99.1931
2844.4888,99.2495
2845.4529,99.3063
2846.4172,99.3723
2847.3813,99.4439
2848.3457,99.5134
2849.3098,99.5715
2850.2742,99.6101
2851.2383,99.6252
2852.2026,99.6179
2853.1667,99.5935
2854.1311,99.5585
2855.0952,99.5184
2856.0596,99.4757
2857.0237,99.431
2857.9880,99.3836
2858.9521,99.3334
2859.9165,99.2805
2860.8806,99.2254
2861.8450,99.1693
2862.8091,99.1143
2863.7734,99.064
2864.7375,99.0226
2865.7019,98.9936
2866.6660,98.9782
2867.6304,98.974
2868.5945,98.9757
2869.5588,98.9767
2870.5229,98.9711
2871.4873,98.9558
2872.4514,98.9314
2873.4158,98.902
2874.3799,98.8733
2875.3442,98.8507
2876.3083,98.8372
2877.2727,98.8336
2878.2368,98.8386
2879.2012,98.8501
2880.1653,98.8663
2881.1296,98.8855
2882.0938,98.9054
2883.0581,98.9231
2884.0222,98.9361
2884.9866,98.943
2885.9507,98.9449
2886.9150,98.945
2887.8792,98.9472
2888.8435,98.9543
2889.8076,98.9665
2890.7720,98.9812
2891.7361,98.9947
2892.7004,99.0049
2893.6646,99.0138
2894.6289,99.0276
2895.5930,99.055
2896.5574,99.1016
2897.5215,99.1661
2898.4858,99.2378
2899.4500,99.3006
2900.4143,99.3395
2901.3784,99.3481
2902.3428,99.3319
2903.3069,99.305
2904.2712,99.283
2905.2354,99.2762
2906.1997,99.2879
2907.1638,99.3154
2908.1282,99.3538
2909.0923,99.3993
2910.0566,99.4494
2911.0208,99.5031
2911.9851,99.56
2912.9492,99.6201
2913.9136,99.6835
2914.8777,99.7496
2915.8420,99.8166
2916.8062,99.8804
2917.7705,99.9364
2918.7346,99.9808
2919.6990,100.012
2920.6631,100.033
2921.6274,100.044
2922.5916,100.048
2923.5559,100.044
2924.5200,100.029
2925.4844,100
2926.4485,99.957
2927.4128,99.901
2928.3770,99.8356
2929.3413,99.7657
2930.3054,99.6956
2931.2698,99.6285
2932.2339,99.566
2933.1982,99.5084
2934.1624,99.4549
2935.1267,99.4047
2936.0908,99.357
2937.0552,99.312
2938.0193,99.2707
2938.9836,99.2346
2939.9478,99.2055
2940.9121,99.1845
2941.8762,99.1721
2942.8406,99.1677
2943.8047,99.1707
2944.7690,99.1804
2945.7332,99.1962
2946.6975,99.2177
2947.6616,99.2444
2948.6260,99.2759
2949.5901,99.3121
2950.5544,99.3531
2951.5186,99.3991
2952.4829,99.4494
2953.4470,99.5022
2954.4114,99.5547
2955.3755,99.6043
2956.3398,99.6489
2957.3040,99.6881
2958.2683,99.722
2959.2324,99.7508
2960.1968,99.7744
2961.1609,99.7927
2962.1252,99.8066
2963.0894,99.8186
2964.0537,99.8312
2965.0178,99.8463
2965.9822,99.8635
2966.9463,99.8804
2967.9106,99.894
2968.8748,99.902
2969.8391,99.9042
2970.8032,99.9014
2971.7676,99.8945
2972.7317,99.8842
2973.6960,99.8712
2974.6602,99.8568
2975.6245,99.843
2976.5886,99.8323
2977.5530,99.8256
2978.5171,99.822
2979.4814,99.8191
2980.4456,99.8154
2981.4099,99.812
2982.3740,99.8132
2983.3384,99.8243
2984.3025,99.8485
2985.2668,99.886
2986.2310,99.9193
2987.1953,99.933
2988.1594,99.9148
2989.1238,99.8623
2990.0879,99.7847
2991.0522,99.6993
2992.0164,99.6227
2992.9807,99.5643
2993.9448,99.5234
2994.9092,99.4916
2995.8733,99.4592
2996.8376,99.4199
2997.8018,99.3738
2998.7661,99.3249
2999.7302,99.2779
3000.6946,99.2349
3001.6587,99.1945
3002.6230,99.1533
3003.5872,99.1081
3004.5515,99.0574
3005.5156,99.0023
3006.4800,98.9452
3007.4441,98.889
3008.4084,98.8355
3009.3726,98.7852
3010.3369,98.7378
3011.3010,98.692
3012.2654,98.6469
3013.2295,98.6012
3014.1938,98.554
3015.1580,98.5049
3016.1223,98.454
3017.0864,98.4029
3018.0508,98.354
3019.0149,98.3096
3019.9792,98.2706
3020.9434,98.2357
3021.9077,98.2021
3022.8718,98.1664
3023.8362,98.127
3024.8003,98.0849
3025.7646,98.0432
3026.7288,98.0056
3027.6931,97.9747
3028.6572,97.9501
3029.6216,97.9292
3030.5857,97.9076
3031.5500,97.8815
3032.5142,97.849
3033.4785,97.8109
3034.4426,97.7707
3035.4070,97.7323
3036.3711,97.6992
3037.3354,97.673
3038.2996,97.653
3039.2639,97.6369
3040.2280,97.622
3041.1924,97.6061
3042.1565,97.5881
3043.1208,97.5682
3044.0850,97.5474
3045.0493,97.5271
3046.0134,97.5082
3046.9778,97.4913
3047.9419,97.4763
3048.9063,97.4629
3049.8704,97.45
3050.8347,97.4369
3051.7988,97.4229
3052.7632,97.408
3053.7273,97.3928
3054.6917,97.3782
3055.6558,97.3648
3056.6201,97.3518
3057.5842,97.3377
3058.5486,97.3213
3059.5127,97.3032
3060.4771,97.2858
3061.4412,97.2723
3062.4055,97.2648
3063.3696,97.2618
3064.3340,97.259
3065.2981,97.2512
3066.2625,97.2356
3067.2266,97.2132
3068.1909,97.1886
3069.1550,97.1658
3070.1194,97.147
3071.0835,97.1312
3072.0479,97.1162
3073.0120,97.1007
3073.9763,97.0857
3074.9404,97.0732
3075.9048,97.0645
3076.8689,97.059
3077.8333,97.0548
3078.7974,97.0494
3079.7617,97.0419
3080.7258,97.0323
3081.6902,97.0213
3082.6543,97.0093
3083.6187,96.996
3084.5828,96.9817
3085.5471,96.9667
3086.5112,96.9519
3087.4756,96.9379
3088.4397,96.9248
3089.4041,96.9129
3090.3682,96.9027
3091.3325,96.8955
3092.2966,96.8916
3093.2610,96.8899
3094.2251,96.8878
3095.1895,96.8821
3096.1536,96.8717
3097.1179,96.8579
3098.0820,96.8438
3099.0464,96.8319
3100.0105,96.8224
3100.9749,96.8126
3101.9390,96.7991
3102.9033,96.7801
3103.8674,96.7571
3104.8318,96.7334
3105.7959,96.7124
3106.7603,96.6951
3107.7244,96.6802
3108.6887,96.6651
3109.6528,96.6486
3110.6172,96.6317
3111.5813,96.617
3112.5457,96.6069
3113.5098,96.601
3114.4741,96.5965
3115.4382,96.5901
3116.4026,96.5798
3117.3667,96.5666
3118.3311,96.553
3119.2952,96.5409
3120.2595,96.5296
3121.2236,96.5165
3122.1880,96.4989
3123.1521,96.4763
3124.1165,96.4505
3125.0806,96.4247
3126.0449,96.4009
3127.0090,96.3798
3127.9734,96.361
3128.9375,96.3445
3129.9019,96.3309
3130.8660,96.3205
3131.8303,96.3124
3132.7944,96.3038
3133.7588,96.2914
3134.7229,96.2737
3135.6873,96.2516
3136.6514,96.2281
3137.6157,96.2065
3138.5798,96.1885
3139.5442,96.174
3140.5083,96.1612
3141.4727,96.1486
3142.4368,96.1353
3143.4011,96.1215
3144.3652,96.1079
3145.3296,96.095
3146.2937,96.0828
3147.2581,96.0699
3148.2222,96.0548
3149.1865,96.036
3150.1506,96.0136
3151.1150,95.9886
3152.0791,95.9631
3153.0435,95.9383
3154.0076,95.9147
3154.9719,95.8917
3155.9360,95.8689
3156.9004,95.8461
3157.8645,95.824
3158.8289,95.8031
3159.7930,95.7838
3160.7573,95.7665
3161.7214,95.7522
3162.6858,95.7422
3163.6499,95.737
3164.6143,95.7351
3165.5784,95.7322
3166.5427,95.7228
3167.5068,95.7032
3168.4712,95.6735
3169.4353,95.5734
3170.3997,95.5391
3171.3638,95.5124
3172.3281,95.496
3173.2922,95.4888
3174.2566,95.4872
3175.2207,95.4864
3176.1851,95.4819
3177.1492,95.4705
3178.1135,95.4514
3179.0776,95.4269
3180.0420,95.4009
3181.0061,95.3777
3181.9705,95.3593
3182.9346,95.3445
3183.8989,95.3302
3184.8630,95.314
3185.8274,95.296
3186.7915,95.2795
3187.7559,95.2675
3188.7200,95.2598
3189.6843,95.2519
3190.6484,95.237
3191.6128,95.2108
3192.5769,95.1746
3193.5413,95.1354
3194.5054,95.1016
3195.4697,95.0784
3196.4338,95.0651
3197.3982,95.0567
3198.3623,95.0478
3199.3267,95.0366
3200.2908,95.0246
3201.2551,95.0149
3202.2192,95.0079
3203.1836,95.0005
3204.1477,94.9877
3205.1121,94.9657
3206.0762,94.9353
3207.0405,94.9013
3208.0046,94.8705
3208.9690,94.8476
3209.9331,94.8328
3210.8975,94.822
3211.8616,94.8094
3212.8259,94.7907
3213.7900,94.766
3214.7544,94.7396
3215.7185,94.7179
3216.6829,94.7054
3217.6470,94.7028
3218.6113,94.7062
3219.5754,94.7089
3220.5398,94.7043
3221.5039,94.6887
3222.4683,94.6623
3223.4324,94.629
3224.3967,94.5944
3225.3608,94.5644
3226.3252,94.5433
3227.2893,94.5324
3228.2537,94.5295
3229.2178,94.5301
3230.1821,94.5293
3231.1462,94.5238
3232.1106,94.5135
3233.0747,94.5003
3234.0391,94.4867
3235.0032,94.4738
3235.9675,94.4602
3236.9316,94.4436
3237.8960,94.422
3238.8601,94.3954
3239.8245,94.3663
3240.7886,94.3382
3241.7529,94.3148
3242.7170,94.2989
3243.6814,94.2913
3244.6455,94.2904
3245.6099,94.2916
3246.5740,94.2894
3247.5383,94.2783
3248.5024,94.256
3249.4668,94.225
3250.4309,94.1919
3251.3953,94.1649
3252.3594,94.1496
3253.3237,94.1457
3254.2878,94.1476
3255.2522,94.147
3256.2163,94.1379
3257.1807,94.1189
3258.1448,94.0929
3259.1091,94.0646
3260.0732,94.0376
3261.0376,94.0134
3262.0017,93.9925
3262.9661,93.9751
3263.9302,93.9615
3264.8945,93.9521
3265.8586,93.9455
3266.8230,93.9393
3267.7871,93.9309
3268.7515,93.919
3269.7156,93.9047
3270.6799,93.8904
3271.6440,93.8787
3272.6084,93.8709
3273.5725,93.8666
3274.5369,93.8641
3275.5010,93.8618
3276.4653,93.859
3277.4294,93.8557
3278.3938,93.8526
3279.3579,93.8502
3280.3223,93.8485
3281.2864,93.8479
3282.2507,93.8487
3283.2148,93.8513
3284.1792,93.8554
3285.1433,93.8589
3286.1077,93.8584
3287.0718,93.8504
3288.0361,93.8337
3289.0002,93.8108
3289.9646,93.7874
3290.9287,93.7696
3291.8931,93.7604
3292.8572,93.758
3293.8215,93.7577
3294.7856,93.7548
3295.7500,93.7484
3296.7141,93.7414
3297.6785,93.7389
3298.6426,93.7437
3299.6069,93.7546
3300.5710,93.7664
3301.5354,93.773
3302.4995,93.7708
3303.4639,93.761
3304.4280,93.7485
3305.3923,93.7392
3306.3564,93.7365
3307.3208,93.7402
3308.2849,93.7468
3309.2493,93.7522
3310.2134,93.7538
3311.1777,93.7519
3312.1418,93.7486
3313.1062,93.7455
3314.0703,93.7427
3315.0347,93.7388
3315.9988,93.732
3316.9631,93.7227
3317.9272,93.713
3318.8916,93.7063
3319.8557,93.7046
3320.8201,93.7082
3321.7842,93.7146
3322.7485,93.7209
3323.7126,93.7252
3324.6770,93.7277
3325.6411,93.7298
3326.6055,93.7329
3327.5696,93.7364
3328.5339,93.738
3329.4980,93.735
3330.4624,93.7259
3331.4265,93.7116
3332.3909,93.6959
3333.3550,93.6842
3334.3193,93.6812
3335.2834,93.6895
3336.2478,93.7085
3337.2119,93.7346
3338.1763,93.7624
3339.1404,93.7866
3340.1047,93.8035
3341.0688,93.8118
3342.0332,93.8131
3342.9973,93.8105
3343.9617,93.8075
3344.9258,93.8068
3345.8901,93.8089
3346.8542,93.8135
3347.8186,93.8194
3348.7827,93.8258
3349.7471,93.8319
3350.7112,93.8366
3351.6755,93.8389
3352.6396,93.8383
3353.6040,93.8363
3354.5681,93.8362
3355.5325,93.8423
3356.4966,93.8569
3357.4609,93.8788
3358.4250,93.9025
3359.3894,93.921
3360.3535,93.9291
3361.3179,93.9264
3362.2820,93.9172
3363.2463,93.9083
3364.2104,93.9052
3365.1748,93.9099
3366.1389,93.9202
3367.1033,93.9318
3368.0674,93.9413
3369.0317,93.948
3369.9958,93.9545
3370.9602,93.9651
3371.9243,93.9842
3372.8887,94.0133
3373.8528,94.0499
3374.8171,94.0875
3375.7813,94.1178
3376.7456,94.1345
3377.7097,94.1364
3378.6741,94.1284
3379.6382,94.1195
3380.6025,94.1182
3381.5667,94.1281
3382.5310,94.1457
3383.4951,94.1624
3384.4595,94.1691
3385.4236,94.1621
3386.3879,94.1457
3387.3521,94.1309
3388.3164,94.13
3389.2805,94.1506
3390.2449,94.1911
3391.2090,94.2401
3392.1733,94.2815
3393.1375,94.3022
3394.1018,94.2989
3395.0659,94.2784
3396.0303,94.2539
3396.9944,94.238
3397.9587,94.2372
3398.9229,94.2503
3399.8872,94.2719
3400.8513,94.2967
3401.8157,94.3229
3402.7798,94.3521
3403.7441,94.3856
3404.7083,94.4217
3405.6726,94.4548
3406.6367,94.4779
3407.6011,94.4861
3408.5652,94.4802
3409.5295,94.4666
3410.4937,94.454
3411.4580,94.4492
3412.4221,94.454
3413.3865,94.4648
3414.3506,94.4758
3415.3149,94.4838
3416.2791,94.4913
3417.2434,94.5051
3418.2075,94.5319
3419.1719,94.5733
3420.1360,94.6227
3421.1003,94.6681
3422.0645,94.6985
3423.0288,94.7096
3423.9929,94.7043
3424.9573,94.6903
3425.9214,94.6752
3426.8857,94.6637
3427.8499,94.657
3428.8142,94.6552
3429.7783,94.6595
3430.7427,94.673
3431.7068,94.6992
3432.6711,94.7387
3433.6353,94.7875
3434.5996,94.8374
3435.5637,94.88
3436.5281,94.9096
3437.4922,94.9252
3438.4565,94.9287
3439.4207,94.9223
3440.3850,94.907
3441.3491,94.8843
3442.3135,94.8595
3443.2776,94.8434
3444.2419,94.8501
3445.2061,94.8901
3446.1704,94.9623
3447.1345,95.0526
3448.0989,95.1397
3449.0630,95.2067
3450.0273,95.2472
3450.9915,95.2651
3451.9558,95.2678
3452.9199,95.2617
3453.8843,95.2482
3454.8484,95.2269
3455.8127,95.1997
3456.7769,95.1743
3457.7412,95.1629
3458.7053,95.1766
3459.6697,95.2198
3460.6338,95.2868
3461.5981,95.3641
3462.5623,95.4365
3463.5266,95.4932
3464.4907,95.5312
3465.4551,95.5534
3466.4192,95.5643
3467.3835,95.5661
3468.3477,95.5585
3469.3120,95.5405
3470.2761,95.5142
3471.2405,95.4867
3472.2046,95.4688
3473.1689,95.471
3474.1331,95.4987
3475.0974,95.5505
3476.0615,95.6192
3477.0259,95.6965
3477.9900,95.7745
3478.9543,95.8449
3479.9185,95.8974
3480.8828,95.92
3481.8469,95.9057
3482.8113,95.8595
3483.7754,95.799
3484.7397,95.7485
3485.7039,95.7309
3486.6682,95.7591
3487.6323,95.8312
3488.5967,95.9321
3489.5608,96.0394
3490.5251,96.1337
3491.4893,96.2043
3492.4536,96.2495
3493.4177,96.273
3494.3821,96.2778
3495.3462,96.2639
3496.3105,96.2294
3497.2747,96.1755
3498.2390,96.1121
3499.2031,96.0594
3500.1675,96.0439
3501.1316,96.087
3502.0959,96.1889
3503.0601,96.3237
3504.0244,96.4524
3504.9885,96.5445
3505.9529,96.5902
3506.9170,96.598
3507.8813,96.5852
3508.8455,96.5665
3509.8098,96.5477
3510.7739,96.5269
3511.7383,96.5019
3512.7024,96.4757
3513.6667,96.4565
3514.6309,96.4553
3515.5952,96.4805
3516.5593,96.5333
3517.5237,96.6071
3518.4878,96.6898
3519.4521,96.7686
3520.4163,96.8326
3521.3806,96.8732
3522.3447,96.8858
3523.3091,96.8716
3524.2732,96.8403
3525.2375,96.8078
3526.2017,96.79
3527.1660,96.7965
3528.1301,96.8271
3529.0945,96.8743
3530.0586,96.9292
3531.0229,96.9852
3531.9871,97.0401
3532.9514,97.0947
3533.9155,97.1485
3534.8799,97.1963
3535.8440,97.2272
3536.8083,97.2295
3537.7725,97.1986
3538.7368,97.14
3539.7009,97.0678
3540.6653,97.0034
3541.6294,96.973
3542.5938,97.0016
3543.5579,97.0977
3544.5222,97.2392
3545.4863,97.3781
3546.4507,97.4705
3547.4148,97.5031
3548.3792,97.4917
3549.3433,97.4646
3550.3076,97.4487
3551.2717,97.4584
3552.2361,97.4897
3553.2002,97.5243
3554.1646,97.5445
3555.1287,97.5457
3556.0930,97.5382
3557.0571,97.5403
3558.0215,97.5668
3558.9856,97.6156
3559.9500,97.6648
3560.9141,97.6842
3561.8784,97.6581
3562.8425,97.6017
3563.8069,97.5633
3564.7710,97.5988
3565.7354,97.7181
3566.6995,97.8538
3567.6638,97.9265
3568.6279,97.9263
3569.5923,97.8871
3570.5564,97.8341
3571.5208,97.7811
3572.4849,97.7457
3573.4492,97.748
3574.4133,97.7978
3575.3777,97.8871
3576.3418,97.9952
3577.3062,98.0986
3578.2703,98.1769
3579.2346,98.2122
3580.1987,98.1898
3581.1631,98.1036
3582.1272,97.9652
3583.0916,97.8118
3584.0557,97.7094
3585.0200,97.7322
3585.9841,97.905
3586.9485,98.1492
3587.9126,98.3347
3588.8770,98.4003
3589.8411,98.3719
3590.8054,98.3008
3591.7695,98.2331
3592.7339,98.2047
3593.6980,98.2288
3594.6624,98.2862
3595.6265,98.3437
3596.5908,98.3869
3597.5549,98.4281
3598.5193,98.4872
3599.4834,98.5662
3600.4478,98.6401
3601.4119,98.6736
3602.3762,98.647
3603.3403,98.5688
3604.3047,98.4731
3605.2688,98.4062
3606.2332,98.4024
3607.1973,98.4575
3608.1616,98.5299
3609.1257,98.5778
3610.0901,98.5911
3611.0542,98.5844
3612.0186,98.5707
3612.9829,98.5481
3613.9470,98.5076
3614.9114,98.4523
3615.8755,98.4108
3616.8398,98.4311
3617.8040,98.5479
3618.7683,98.7408
3619.7324,98.9351
3620.6968,99.0585
3621.6609,99.0786
3622.6252,98.9869
3623.5894,98.791
3624.5537,98.5347
3625.5178,98.3209
3626.4822,98.2919
3627.4463,98.5215
3628.4106,98.8806
3629.3748,99.1377
3630.3391,99.2187
3631.3032,99.1935
3632.2676,99.1286
3633.2317,99.0585
3634.1960,99.0083
3635.1602,98.9978
3636.1245,99.0327
3637.0886,99.103
3638.0530,99.1896
3639.0171,99.2716
3639.9814,99.3271
3640.9456,99.332
3641.9099,99.2626
3642.8740,99.1067
3643.8384,98.8816
3644.8025,98.6594
3645.7668,98.5897
3646.7310,98.8689
3647.6953,99.5415
3648.6594,100.226
3649.6238,100.442
3650.5879,100.239
3651.5522,99.9083
3652.5164,99.5933
3653.4807,99.3317
3654.4448,99.161
3655.4092,99.1238
3656.3733,99.2223
3657.3376,99.4015
3658.3018,99.5885
3659.2661,99.7367
3660.2302,99.8345
3661.1946,99.8891
3662.1587,99.9047
3663.1230,99.8711
3664.0872,99.7739
3665.0515,99.6201
3666.0156,99.4604
3666.9800,99.3847
3667.9441,99.4626
3668.9084,99.6456
3669.8726,99.7673
3670.8369,99.7064
3671.8010,99.4993
3672.7654,99.2868
3673.7295,99.2253
3674.6938,99.3892
3675.6580,99.683
3676.6223,99.9291
3677.5864,100.052
3678.5508,100.078
3679.5149,100.044
3680.4792,99.9749
3681.4434,99.8781
3682.4077,99.7413
3683.3718,99.5511
3684.3362,99.3101
3685.3003,99.0662
3686.2646,98.927
3687.2288,99.0236
3688.1931,99.3913
3689.1572,99.8617
3690.1216,100.191
3691.0857,100.3
3692.0500,100.255
3693.0142,100.129
3693.9785,99.9602
3694.9426,99.7691
3695.9070,99.5722
3696.8711,99.3915
3697.8354,99.2595
3698.7996,99.2169
3699.7639,99.2941
3700.7280,99.4782
3701.6924,99.6965
3702.6565,99.8519
3703.6208,99.8798
3704.5850,99.7699
3705.5493,99.5518
3706.5134,99.2876
3707.4778,99.0755
3708.4419,99.0369
3709.4063,99.2477
3710.3704,99.6291
3711.3347,99.9642
3712.2988,100.112
3713.2632,100.097
3714.2273,99.9912
3715.1917,99.8372
3716.1558,99.6622
3717.1201,99.5034
3718.0842,99.407
3719.0486,99.4099
3720.0127,99.5205
3720.9771,99.718
3721.9412,99.968
3722.9055,100.234
3723.8696,100.476
3724.8340,100.643
3725.7981,100.695
3726.7625,100.615
3727.7266,100.416
3728.6909,100.132
3729.6550,99.8186
3730.6194,99.5654
3731.5835,99.4965
3732.5479,99.7355
3733.5120,100.299
3734.4763,100.977
3735.4404,101.433
3736.4048,101.527
3737.3689,101.352
3738.3333,101.027
3739.2974,100.601
3740.2617,100.116
3741.2258,99.6591
3742.1902,99.3691
3743.1543,99.347
3744.1187,99.5313
3745.0828,99.726
3746.0471,99.7968
3747.0112,99.7579
3747.9756,99.7171
3748.9397,99.7949
3749.9041,100.003
3750.8682,100.174
3751.8325,100.155
3752.7966,99.9801
3753.7610,99.7392
3754.7251,99.4855
3755.6895,99.265
3756.6536,99.1385
3757.6179,99.1464
3758.5820,99.2597
3759.5464,99.39
3760.5105,99.4578
3761.4749,99.437
3762.4390,99.3464
3763.4033,99.2272
3764.3674,99.124
3765.3318,99.0704
3766.2959,99.0805
3767.2603,99.1494
3768.2244,99.2583
3769.1887,99.3767
3770.1528,99.468
3771.1172,99.5008
3772.0813,99.4597
3773.0457,99.3466
3774.0098,99.1805
3774.9741,99.0024
3775.9382,98.8738
3776.9026,98.8542
3777.8667,98.959
3778.8311,99.1364
3779.7952,99.3022
3780.7595,99.4021
3781.7236,99.4324
3782.6880,99.4187
3783.6521,99.3895
3784.6165,99.3618
3785.5806,99.3387
3786.5449,99.3159
3787.5090,99.2882
3788.4734,99.2513
3789.4375,99.2017
3790.4019,99.1401
3791.3660,99.0774
3792.3303,99.0368
3793.2944,99.0437
3794.2588,99.1061
3795.2229,99.2
3796.1873,99.2805
3797.1514,99.3171
3798.1157,99.3202
3799.0798,99.3285
3800.0442,99.3584
3801.0083,99.3689
3801.9727,99.3013
3802.9368,99.1495
3803.9011,98.9665
3804.8652,98.8292
3805.8296,98.8067
3806.7937,98.9187
3807.7581,99.1094
3808.7222,99.2808
3809.6865,99.3546
3810.6506,99.3048
3811.6150,99.1643
3812.5791,99.0164
3813.5435,98.958
3814.5076,99.0282
3815.4719,99.1618
3816.4360,99.2462
3817.4004,99.2315
3818.3645,99.1603
3819.3289,99.1092
3820.2930,99.1151
3821.2573,99.1547
3822.2214,99.1906
3823.1858,99.2098
3824.1499,99.2158
3825.1143,99.2175
3826.0784,99.2278
3827.0427,99.2574
3828.0068,99.3061
3828.9712,99.3607
3829.9353,99.3999
3830.8997,99.4007
3831.8638,99.343
3832.8281,99.2181
3833.7922,99.0392
3834.7566,98.85
3835.7207,98.7162
3836.6851,98.6958
3837.6492,98.7991
3838.6135,98.9795
3839.5776,99.1756
3840.5420,99.3543
3841.5061,99.5107
3842.4705,99.6456
3843.4346,99.7497
3844.3989,99.8003
3845.3630,99.7661
3846.3274,99.6155
3847.2915,99.328
3848.2559,98.9136
3849.2200,98.4435
3850.1843,98.0846
3851.1484,98.088
3852.1128,98.6026
3853.0769,99.3534
3854.0413,99.8442
3855.0054,99.9747
3855.9697,99.9128
3856.9338,99.7552
3857.8982,99.5268
3858.8623,99.2599
3859.8267,99.0225
3860.7908,98.9005
3861.7551,98.947
3862.7192,99.1267
3863.6836,99.3217
3864.6477,99.4185
3865.6121,99.3839
3866.5762,99.2616
3867.5405,99.1311
3868.5046,99.0692
3869.4690,99.1151
3870.4331,99.2482
3871.3975,99.4033
3872.3616,99.5151
3873.3259,99.5492
3874.2900,99.5009
3875.2544,99.385
3876.2185,99.2333
3877.1829,99.0937
3878.1470,99.0188
3879.1113,99.0396
3880.0754,99.1397
3881.0398,99.2632
3882.0039,99.3552
3882.9683,99.3947
3883.9324,99.388
3884.8967,99.3455
3885.8608,99.2701
3886.8252,99.1663
3887.7893,99.0542
3888.7537,98.9784
3889.7178,98.9986
3890.6821,99.1474
3891.6462,99.3791
3892.6106,99.5831
3893.5747,99.6656
3894.5391,99.599
3895.5032,99.4131
3896.4675,99.1739
3897.4316,98.9641
3898.3960,98.8534
3899.3601,98.8682
3900.3245,98.987
3901.2886,99.1653
3902.2529,99.3571
3903.2170,99.5182
3904.1814,99.6158
3905.1455,99.6431
3906.1099,99.6158
3907.0740,99.5551
3908.0383,99.4796
3909.0024,99.4048
3909.9668,99.3404
3910.9309,99.2875
3911.8953,99.2414
3912.8594,99.2017
3913.8237,99.182
3914.7878,99.2073
3915.7522,99.2947
3916.7163,99.4291
3917.6807,99.5615
3918.6448,99.6398
3919.6091,99.642
3920.5732,99.5817
3921.5376,99.4937
3922.5017,99.4164
3923.4661,99.3728
3924.4302,99.3592
3925.3945,99.3527
3926.3586,99.3318
3927.3230,99.2931
3928.2871,99.2557
3929.2515,99.2525
3930.2156,99.3085
3931.1799,99.419
3932.1440,99.5468
3933.1084,99.6471
3934.0725,99.6919
3935.0369,99.6753
3936.0010,99.6058
3936.9653,99.5009
3937.9294,99.3853
3938.8938,99.2887
3939.8579,99.24
3940.8223,99.2549
3941.7864,99.3248
3942.7507,99.4169
3943.7148,99.4927
3944.6792,99.5287
3945.6433,99.5266
3946.6077,99.5072
3947.5718,99.4955
3948.5361,99.5034
3949.5002,99.5222
3950.4646,99.5308
3951.4287,99.5122
3952.3931,99.4647
3953.3572,99.4019
3954.3215,99.3448
3955.2856,99.3119
3956.2500,99.3113
3957.2141,99.3401
3958.1785,99.3901
3959.1426,99.4527
3960.1069,99.5205
3961.0710,99.5847
3962.0354,99.6337
3962.9995,99.6554
3963.9639,99.643
3964.9280,99.5991
3965.8923,99.5358
3966.8564,99.4706
3967.8208,99.4204
3968.7849,99.396
3969.7493,99.3993
3970.7134,99.4256
3971.6777,99.4664
3972.6418,99.5129
3973.6062,99.5572
3974.5703,99.5929
3975.5347,99.616
3976.4988,99.6259
3977.4631,99.6258
3978.4272,99.6205
3979.3916,99.6145
3980.3557,99.6094
3981.3201,99.6033
3982.2842,99.5921
3983.2485,99.5734
3984.2126,99.5487
3985.1770,99.5241
3986.1411,99.5083
3987.1055,99.508
3988.0696,99.5245
3989.0339,99.5526
3989.9980,99.5821
3990.9624,99.6032
3991.9265,99.6118
3992.8909,99.6099
3993.8550,99.6039
3994.8193,99.5995
3995.7834,99.5978
3996.7478,99.5961
3997.7119,99.5905
3998.6763,99.5784
3999.6404,99.5633
4000.6047,99.6924

##### Extended Information
[Comments]
Sample name
Comment
User
Division
Company,HANKYONG

[Detailed Information]
Creation date,4/24/2024 2:45 PM

Data array type,Linear data array
Horizontal axis,Wavenumber [cm-1]
Vertical axis,%T
Start,649.893 cm-1
End,4000.6 cm-1
Data interval,0.964233 cm-1
Data points,3476    

[Measurement Information]
Model Name,FT/IR-4700typeA
Serial Number,D056761788

Accessory,ATR PRO ONE
Accessory S/N,C174761809
Incident angle,45 deg

Measurement Date,4/24/2024 2:45 PM

Light Source,Standard
Detector,TGS
Accumulation,32
Resolution,4 cm-1
Zero Filling,On
Apodization,Cosine
Gain,Auto (4)
Aperture,Auto (7.1 mm)
Scanning Speed,Auto (2 mm/sec)
Filter,Auto (30000 Hz)

