TITLE,
DATA TYPE,INFRARED SPECTRUM
ORIGIN,JASCO
OWNER,
DATE,24/04/24
TIME,14:49:50
SPECTROMETER/DATA SYSTEM,
LOCALE,1033
RESOLUTION,
DELTAX,0.964233
XUNITS,1/CM
YUNITS,TRANSMITTANCE
FIRSTX,  649.8934
LASTX, 4000.6047
NPOINTS,    3476
FIRSTY,    99.19228
MAXY,   101.69474
MINY,    80.97994
XYDATA
649.8934,99.1923
650.8576,99.2012
651.8218,99.2279
652.7861,99.2563
653.7503,99.2567
654.7145,99.2096
655.6788,99.1193
656.6430,99.0098
657.6072,98.9084
658.5715,98.8281
659.5357,98.7631
660.4999,98.7014
661.4642,98.6435
662.4284,98.6112
663.3926,98.6397
664.3569,98.7674
665.3211,99.0275
666.2853,99.4296
667.2496,99.8953
668.2138,100.2
669.1780,100.151
670.1423,99.8634
671.1065,99.5846
672.0707,99.4347
673.0350,99.4213
673.9992,99.5103
674.9634,99.656
675.9277,99.8155
676.8919,99.9618
677.8561,100.089
678.8204,100.2
679.7846,100.296
680.7488,100.371
681.7131,100.418
682.6773,100.445
683.6415,100.467
684.6058,100.498
685.5700,100.537
686.5342,100.568
687.4985,100.573
688.4627,100.541
689.4269,100.479
690.3912,100.408
691.3554,100.353
692.3196,100.323
693.2839,100.307
694.2481,100.285
695.2123,100.244
696.1766,100.18
697.1408,100.099
698.1050,100.014
699.0693,99.9447
700.0335,99.9079
700.9977,99.907
701.9620,99.9318
702.9262,99.9634
703.8904,99.9816
704.8547,99.9731
705.8189,99.9351
706.7831,99.8744
707.7474,99.8038
708.7116,99.7368
709.6758,99.6844
710.6401,99.6528
711.6043,99.6444
712.5685,99.658
713.5328,99.691
714.4970,99.7401
715.4612,99.7732
716.4255,99.8446
717.3897,99.9148
718.3539,99.9719
719.3182,100.004
720.2824,100.005
721.2466,99.9808
722.2109,99.9444
723.1751,99.9123
724.1393,99.895
725.1036,99.8942
726.0678,99.9044
727.0320,99.9165
727.9963,99.9226
728.9605,99.9195
729.9247,99.9104
730.8890,99.9021
731.8532,99.9015
732.8174,99.9115
733.7817,99.9396
734.7459,99.9798
735.7101,100.007
736.6744,100.016
737.6386,100.011
738.6028,100.004
739.5671,100.004
740.5313,100.017
741.4955,100.04
742.4598,100.061
743.4240,100.074
744.3882,100.073
745.3525,100.062
746.3167,100.047
747.2809,100.034
748.2452,100.03
749.2094,100.039
750.1736,100.064
751.1379,100.104
752.1021,100.151
753.0663,100.197
754.0306,100.228
754.9948,100.239
755.9590,100.229
756.9233,100.204
757.8875,100.172
758.8517,100.139
759.8160,100.106
760.7802,100.076
761.7444,100.052
762.7087,100.041
763.6729,100.049
764.6371,100.077
765.6014,100.119
766.5656,100.163
767.5298,100.196
768.4941,100.209
769.4583,100.202
770.4225,100.184
771.3868,100.164
772.3510,100.153
773.3152,100.156
774.2795,100.172
775.2437,100.198
776.2079,100.226
777.1722,100.25
778.1364,100.263
779.1006,100.263
780.0649,100.251
781.0291,100.232
781.9933,100.214
782.9576,100.202
783.9218,100.198
784.8860,100.201
785.8503,100.203
786.8145,100.197
787.7787,100.177
788.7430,100.143
789.7072,100.097
790.6714,100.045
791.6357,99.9953
792.5999,99.9523
793.5641,99.9188
794.5284,99.8942
795.4926,99.8756
796.4568,99.8591
797.4211,99.8406
798.3853,99.8169
799.3495,99.7848
800.3138,99.7419
801.2780,99.6873
802.2422,99.6225
803.2065,99.5527
804.1707,99.486
805.1349,99.4321
806.0992,99.399
807.0634,99.3907
808.0276,99.4057
808.9919,99.4379
809.9561,99.4787
810.9203,99.5204
811.8846,99.558
812.8488,99.5907
813.8130,99.6207
814.7773,99.6515
815.7415,99.6871
816.7057,99.7298
817.6700,99.7799
818.6342,99.8353
819.5984,99.8912
820.5627,99.9421
821.5269,99.983
822.4911,100.012
823.4554,100.03
824.4196,100.042
825.3839,100.054
826.3481,100.07
827.3123,100.088
828.2766,100.105
829.2408,100.122
830.2050,100.126
831.1693,100.113
832.1335,100.088
833.0977,100.059
834.0620,100.036
835.0262,100.025
835.9904,100.028
836.9547,100.038
837.9189,100.044
838.8831,100.04
839.8474,100.019
840.8116,99.9843
841.7758,99.9422
842.7401,99.8998
843.7043,99.8621
844.6685,99.8301
845.6328,99.8006
846.5970,99.7676
847.5612,99.7245
848.5255,99.6672
849.4897,99.5969
850.4539,99.5201
851.4182,99.446
852.3824,99.3822
853.3466,99.3298
854.3109,99.2836
855.2751,99.2356
856.2393,99.1806
857.2036,99.12
858.1678,99.0608
859.1320,99.0104
860.0963,98.9718
861.0605,98.9423
862.0247,98.9157
862.9890,98.8867
863.9532,98.8534
864.9174,98.8167
865.8817,98.7777
866.8459,98.7364
867.8101,98.6912
868.7744,98.6407
869.7386,98.5842
870.7028,98.5228
871.6671,98.458
872.6313,98.3928
873.5955,98.3311
874.5598,98.2774
875.5240,98.2347
876.4882,98.202
877.4525,98.1735
878.4167,98.1406
879.3809,98.0965
880.3452,98.0396
881.3094,97.9735
882.2736,97.9041
883.2379,97.8347
884.2021,97.7651
885.1663,97.6925
886.1306,97.6157
887.0948,97.5361
888.0590,97.4571
889.0233,97.38
889.9875,97.3025
890.9517,97.2205
891.9160,97.1322
892.8802,97.0423
893.8444,96.9614
894.8087,96.9018
895.7729,96.871
896.7371,96.8685
897.7014,96.8868
898.6656,96.9163
899.6298,96.9501
900.5941,96.9861
901.5583,97.0253
902.5225,97.0685
903.4868,97.1145
904.4510,97.16
905.4152,97.2016
906.3795,97.2369
907.3437,97.2644
908.3079,97.2822
909.2722,97.2872
910.2364,97.2768
911.2006,97.2507
912.1649,97.2127
913.1291,97.1695
914.0933,97.1272
915.0576,97.0879
916.0218,97.0481
916.9860,97.001
917.9503,96.9406
918.9145,96.866
919.8787,96.7813
920.8430,96.6942
921.8072,96.6108
922.7714,96.5333
923.7357,96.4588
924.6999,96.3816
925.6641,96.2964
926.6284,96.201
927.5926,96.0969
928.5568,95.9887
929.5211,95.8818
930.4853,95.7796
931.4495,95.6817
932.4138,95.5836
933.3780,95.4786
934.3422,95.3611
935.3065,95.2302
936.2707,95.0909
937.2349,94.9523
938.1992,94.8229
939.1634,94.7066
940.1276,94.6009
941.0919,94.4993
942.0561,94.3948
943.0203,94.2841
943.9846,94.1682
944.9488,94.0494
945.9130,93.9289
946.8773,93.8053
947.8415,93.6759
948.8057,93.54
949.7700,93.3995
950.7342,93.2583
951.6984,93.1192
952.6627,92.9809
953.6269,92.8389
954.5911,92.6883
955.5554,92.5282
956.5196,92.363
957.4838,92.2004
958.4481,92.0465
959.4123,91.9023
960.3765,91.7624
961.3408,91.6185
962.3050,91.464
963.2692,91.2982
964.2335,91.1256
965.1977,90.9531
966.1619,90.7855
967.1262,90.6225
968.0904,90.4589
969.0546,90.2873
970.0189,90.1013
970.9831,89.8978
971.9473,89.6768
972.9116,89.4401
973.8758,89.1901
974.8400,88.9278
975.8043,88.6533
976.7685,88.3661
977.7327,88.0664
978.6970,87.7551
979.6612,87.4356
980.6254,87.1135
981.5897,86.796
982.5539,86.4912
983.5181,86.2059
984.4824,85.9447
985.4466,85.7092
986.4108,85.498
987.3751,85.3087
988.3393,85.138
989.3035,84.9834
990.2678,84.8424
991.2320,84.713
992.1962,84.593
993.1605,84.4801
994.1247,84.3722
995.0889,84.267
996.0532,84.162
997.0174,84.0551
997.9816,83.9449
998.9459,83.8314
999.9101,83.7162
1000.8743,83.6014
1001.8386,83.488
1002.8028,83.376
1003.7670,83.2637
1004.7313,83.1499
1005.6955,83.0341
1006.6597,82.9163
1007.6240,82.7964
1008.5882,82.6724
1009.5524,82.541
1010.5167,82.3998
1011.4809,82.2482
1012.4451,82.0891
1013.4094,81.9276
1014.3736,81.7695
1015.3378,81.6198
1016.3021,81.4822
1017.2663,81.3588
1018.2305,81.2499
1019.1948,81.1554
1020.1590,81.0761
1021.1232,81.0156
1022.0875,80.981
1023.0517,80.9799
1024.0160,81.015
1024.9802,81.0791
1025.9445,81.1556
1026.9087,81.2247
1027.8729,81.275
1028.8372,81.3119
1029.8014,81.357
1030.7656,81.4385
1031.7299,81.5779
1032.6941,81.7806
1033.6583,82.0353
1034.6226,82.32
1035.5868,82.611
1036.5510,82.8907
1037.5153,83.1503
1038.4795,83.3881
1039.4437,83.6059
1040.4080,83.8052
1041.3722,83.9851
1042.3364,84.1422
1043.3007,84.2718
1044.2649,84.3708
1045.2291,84.4409
1046.1934,84.4892
1047.1576,84.5273
1048.1218,84.5667
1049.0861,84.6158
1050.0503,84.6782
1051.0145,84.7554
1051.9788,84.8496
1052.9430,84.9658
1053.9072,85.1091
1054.8715,85.281
1055.8357,85.4761
1056.7999,85.6834
1057.7642,85.8937
1058.7284,86.1076
1059.6926,86.339
1060.6569,86.61
1061.6211,86.9383
1062.5853,87.3254
1063.5496,87.7505
1064.5138,88.1753
1065.4780,88.5597
1066.4423,88.88
1067.4065,89.1394
1068.3707,89.3631
1069.3350,89.5823
1070.2992,89.8195
1071.2634,90.0809
1072.2277,90.3598
1073.1919,90.6441
1074.1561,90.9227
1075.1204,91.1876
1076.0846,91.4327
1077.0488,91.6516
1078.0131,91.8384
1078.9773,91.99
1079.9415,92.1087
1080.9058,92.2018
1081.8700,92.2783
1082.8342,92.3459
1083.7985,92.4081
1084.7627,92.4639
1085.7269,92.5097
1086.6912,92.5419
1087.6554,92.5589
1088.6196,92.5633
1089.5839,92.561
1090.5481,92.5599
1091.5123,92.567
1092.4766,92.586
1093.4408,92.6169
1094.4050,92.6574
1095.3693,92.7043
1096.3335,92.7553
1097.2977,92.8081
1098.2620,92.8601
1099.2262,92.9086
1100.1904,92.9517
1101.1547,92.9901
1102.1189,93.0275
1103.0831,93.0692
1104.0474,93.119
1105.0116,93.1776
1105.9758,93.2432
1106.9401,93.3146
1107.9043,93.3929
1108.8685,93.483
1109.8328,93.5906
1110.7970,93.7196
1111.7612,93.8688
1112.7255,94.0328
1113.6897,94.204
1114.6539,94.3747
1115.6182,94.5395
1116.5824,94.6942
1117.5466,94.8359
1118.5109,94.9623
1119.4751,95.0726
1120.4393,95.1687
1121.4036,95.2558
1122.3678,95.3412
1123.3320,95.4319
1124.2963,95.5318
1125.2605,95.6408
1126.2247,95.755
1127.1890,95.8691
1128.1532,95.9782
1129.1174,96.079
1130.0817,96.1698
1131.0459,96.2489
1132.0101,96.3147
1132.9744,96.3656
1133.9386,96.4009
1134.9028,96.4217
1135.8671,96.4306
1136.8313,96.431
1137.7955,96.4257
1138.7598,96.4161
1139.7240,96.402
1140.6882,96.3825
1141.6525,96.3572
1142.6167,96.3262
1143.5809,96.2909
1144.5452,96.2532
1145.5094,96.2147
1146.4736,96.1759
1147.4379,96.1359
1148.4021,96.0929
1149.3663,96.045
1150.3306,95.9923
1151.2948,95.9373
1152.2590,95.8847
1153.2233,95.8399
1154.1875,95.8072
1155.1517,95.7891
1156.1160,95.7861
1157.0802,95.7987
1158.0444,95.8284
1159.0087,95.879
1159.9729,95.9559
1160.9371,96.0648
1161.9014,96.2094
1162.8656,96.3903
1163.8298,96.6041
1164.7941,96.8442
1165.7583,97.1024
1166.7225,97.3708
1167.6868,97.6429
1168.6510,97.9134
1169.6152,98.1774
1170.5795,98.4302
1171.5437,98.6667
1172.5079,98.8827
1173.4722,99.0755
1174.4364,99.2445
1175.4006,99.3903
1176.3649,99.5141
1177.3291,99.6171
1178.2933,99.7004
1179.2576,99.766
1180.2218,99.8158
1181.1860,99.8512
1182.1503,99.8721
1183.1145,99.8773
1184.0787,99.8656
1185.0430,99.8374
1186.0072,99.809
1186.9714,99.7703
1187.9357,99.7236
1188.8999,99.6697
1189.8641,99.608
1190.8284,99.5379
1191.7926,99.4595
1192.7568,99.3737
1193.7211,99.2813
1194.6853,99.1822
1195.6495,99.0764
1196.6138,98.9649
1197.5780,98.8501
1198.5422,98.7356
1199.5065,98.6006
1200.4707,98.4954
1201.4349,98.3928
1202.3992,98.2915
1203.3634,98.192
1204.3276,98.0969
1205.2919,98.0101
1206.2561,97.9342
1207.2203,97.8695
1208.1846,97.8135
1209.1488,97.7626
1210.1130,97.7133
1211.0773,97.663
1212.0415,97.6112
1213.0057,97.5584
1213.9700,97.5061
1214.9342,97.4555
1215.8984,97.4069
1216.8627,97.3594
1217.8269,97.311
1218.7911,97.2605
1219.7554,97.208
1220.7196,97.1552
1221.6838,97.1045
1222.6481,97.0575
1223.6123,97.0147
1224.5765,96.9753
1225.5408,96.9381
1226.5050,96.9023
1227.4692,96.8677
1228.4335,96.8346
1229.3977,96.8032
1230.3619,96.7731
1231.3262,96.7435
1232.2904,96.7132
1233.2546,96.6809
1234.2189,96.6469
1235.1831,96.6133
1236.1473,96.5843
1237.1116,96.5641
1238.0758,96.5542
1239.0400,96.5512
1240.0043,96.5471
1240.9685,96.5334
1241.9327,96.5051
1242.8970,96.4649
1243.8612,96.4217
1244.8254,96.3858
1245.7897,96.3633
1246.7539,96.3529
1247.7181,96.3469
1248.6824,96.3351
1249.6466,96.3099
1250.6108,96.2691
1251.5751,96.2157
1252.5393,96.1559
1253.5035,96.0965
1254.4678,96.0424
1255.4320,95.9959
1256.3962,95.9567
1257.3605,95.9223
1258.3247,95.8901
1259.2889,95.8585
1260.2532,95.8281
1261.2174,95.8018
1262.1816,95.7833
1263.1459,95.7752
1264.1101,95.7783
1265.0743,95.7918
1266.0386,95.815
1267.0028,95.8489
1267.9670,95.8966
1268.9313,95.9618
1269.8955,96.0465
1270.8597,96.1493
1271.8240,96.2652
1272.7882,96.3877
1273.7524,96.5114
1274.7167,96.634
1275.6809,96.7558
1276.6451,96.8778
1277.6094,97.0003
1278.5736,97.1215
1279.5378,97.239
1280.5021,97.3501
1281.4663,97.454
1282.4305,97.5511
1283.3948,97.6423
1284.3590,97.7283
1285.3232,97.8087
1286.2875,97.8826
1287.2517,97.9486
1288.2159,98.0063
1289.1802,98.0558
1290.1444,98.0979
1291.1086,98.1328
1292.0729,98.1597
1293.0371,98.1768
1294.0013,98.183
1294.9656,98.1782
1295.9298,98.1641
1296.8940,98.1431
1297.8583,98.1173
1298.8225,98.0869
1299.7867,98.0507
1300.7510,98.0079
1301.7152,97.959
1302.6794,97.9066
1303.6437,97.8538
1304.6079,97.803
1305.5721,97.7542
1306.5364,97.7053
1307.5006,97.6533
1308.4648,97.5966
1309.4291,97.5355
1310.3933,97.4732
1311.3575,97.4141
1312.3218,97.3624
1313.2860,97.3214
1314.2502,97.2924
1315.2145,97.2752
1316.1787,97.2696
1317.1429,97.2755
1318.1072,97.2928
1319.0714,97.3201
1320.0356,97.355
1320.9999,97.394
1321.9641,97.4336
1322.9283,97.4709
1323.8926,97.5031
1324.8568,97.5278
1325.8210,97.5435
1326.7853,97.5506
1327.7495,97.5521
1328.7137,97.5526
1329.6780,97.5563
1330.6422,97.5653
1331.6064,97.5789
1332.5707,97.5942
1333.5349,97.6094
1334.4991,97.6255
1335.4634,97.6468
1336.4276,97.6788
1337.3918,97.7246
1338.3561,97.78
1339.3203,97.8356
1340.2845,97.8837
1341.2488,97.9244
1342.2130,97.9633
1343.1772,98.0048
1344.1415,98.0489
1345.1057,98.0919
1346.0699,98.1274
1347.0342,98.1486
1347.9984,98.1521
1348.9626,98.1385
1349.9269,98.1127
1350.8911,98.0803
1351.8553,98.0462
1352.8196,98.0129
1353.7838,97.9812
1354.7480,97.9505
1355.7123,97.9198
1356.6765,97.8879
1357.6407,97.8542
1358.6050,97.819
1359.5692,97.7839
1360.5334,97.7512
1361.4977,97.7219
1362.4619,97.6963
1363.4261,97.6766
1364.3904,97.6661
1365.3546,97.6662
1366.3188,97.6752
1367.2831,97.69
1368.2473,97.7089
1369.2115,97.7318
1370.1758,97.7622
1371.1400,97.8075
1372.1042,97.8767
1373.0685,97.9746
1374.0327,98.0957
1374.9969,98.2246
1375.9612,98.3464
1376.9254,98.4568
1377.8896,98.5604
1378.8539,98.664
1379.8181,98.77
1380.7823,98.8743
1381.7466,98.9699
1382.7108,99.0519
1383.6750,99.1219
1384.6393,99.1868
1385.6035,99.2545
1386.5677,99.3278
1387.5320,99.405
1388.4962,99.4854
1389.4604,99.571
1390.4247,99.6623
1391.3889,99.7561
1392.3531,99.8448
1393.3174,99.9147
1394.2816,99.948
1395.2458,99.9341
1396.2101,99.8834
1397.1743,99.8243
1398.1385,99.783
1399.1028,99.7694
1400.0670,99.778
1401.0313,99.7972
1401.9955,99.8169
1402.9597,99.8304
1403.9240,99.8329
1404.8882,99.8064
1405.8524,99.758
1406.8167,99.6928
1407.7809,99.6137
1408.7451,99.5219
1409.7094,99.4168
1410.6736,99.2987
1411.6378,99.1716
1412.6021,99.0424
1413.5663,98.9163
1414.5305,98.7946
1415.4948,98.6769
1416.4590,98.5638
1417.4232,98.4553
1418.3875,98.3504
1419.3517,98.2548
1420.3159,98.1822
1421.2802,98.1405
1422.2444,98.1258
1423.2086,98.1291
1424.1729,98.1426
1425.1371,98.1611
1426.1013,98.1829
1427.0656,98.2106
1428.0298,98.2491
1428.9940,98.3004
1429.9583,98.3592
1430.9225,98.4144
1431.8867,98.4575
1432.8510,98.4892
1433.8152,98.5206
1434.7794,98.5664
1435.7437,98.6308
1436.7079,98.6976
1437.6721,98.7473
1438.6364,98.7777
1439.6006,98.7952
1440.5648,98.8009
1441.5291,98.7918
1442.4933,98.7656
1443.4575,98.7233
1444.4218,98.669
1445.3860,98.6089
1446.3502,98.5491
1447.3145,98.4948
1448.2787,98.4493
1449.2429,98.4144
1450.2072,98.3888
1451.1714,98.3674
1452.1356,98.3438
1453.0999,98.3189
1454.0641,98.3091
1455.0283,98.3456
1455.9926,98.4421
1456.9568,98.5396
1457.9210,98.5645
1458.8853,98.5457
1459.8495,98.5369
1460.8137,98.5451
1461.7780,98.5634
1462.7422,98.5972
1463.7064,98.6587
1464.6707,98.7473
1465.6349,98.8426
1466.5991,98.9231
1467.5634,98.981
1468.5276,99.0209
1469.4918,99.0591
1470.4561,99.1231
1471.4203,99.2378
1472.3845,99.3935
1473.3488,99.5367
1474.3130,99.6289
1475.2772,99.6861
1476.2415,99.7363
1477.2057,99.789
1478.1699,99.8409
1479.1342,99.8862
1480.0984,99.9196
1481.0626,99.937
1482.0269,99.9358
1482.9911,99.9161
1483.9553,99.8811
1484.9196,99.8375
1485.8838,99.7954
1486.8480,99.7655
1487.8123,99.7477
1488.7765,99.7208
1489.7407,99.6635
1490.7050,99.5852
1491.6692,99.507
1492.6334,99.4331
1493.5977,99.3557
1494.5619,99.2688
1495.5261,99.1695
1496.4904,99.0505
1497.4546,98.9013
1498.4188,98.7288
1499.3831,98.5573
1500.3473,98.4002
1501.3115,98.2508
1502.2758,98.0999
1503.2400,97.9533
1504.2042,97.8425
1505.1685,97.8195
1506.1327,97.8992
1507.0969,97.9725
1508.0612,97.9401
1509.0254,97.8821
1509.9896,97.8747
1510.9539,97.9139
1511.9181,97.981
1512.8823,98.0729
1513.8466,98.1986
1514.8108,98.3649
1515.7750,98.5628
1516.7393,98.7688
1517.7035,98.9633
1518.6677,99.1465
1519.6320,99.3331
1520.5962,99.5283
1521.5604,99.713
1522.5247,99.8597
1523.4889,99.9594
1524.4531,100.023
1525.4174,100.068
1526.3816,100.103
1527.3458,100.13
1528.3101,100.146
1529.2743,100.148
1530.2385,100.14
1531.2028,100.131
1532.1670,100.124
1533.1312,100.113
1534.0955,100.087
1535.0597,100.044
1536.0239,99.9901
1536.9882,99.9475
1537.9524,99.9568
1538.9166,100.07
1539.8809,100.276
1540.8451,100.425
1541.8093,100.381
1542.7736,100.253
1543.7378,100.155
1544.7020,100.105
1545.6663,100.082
1546.6305,100.067
1547.5947,100.049
1548.5590,100.023
1549.5232,99.9905
1550.4874,99.9544
1551.4517,99.9181
1552.4159,99.8828
1553.3801,99.8483
1554.3444,99.8184
1555.3086,99.8114
1556.2728,99.8661
1557.2371,100.009
1558.2013,100.145
1559.1655,100.114
1560.1298,99.9792
1561.0940,99.8885
1562.0582,99.8582
1563.0225,99.8498
1563.9867,99.8358
1564.9509,99.8092
1565.9152,99.7759
1566.8794,99.7445
1567.8436,99.7157
1568.8079,99.6793
1569.7721,99.6261
1570.7363,99.5598
1571.7006,99.489
1572.6648,99.4188
1573.6290,99.3544
1574.5933,99.3032
1575.5575,99.2649
1576.5217,99.2248
1577.4860,99.1746
1578.4502,99.1213
1579.4144,99.0677
1580.3787,99.0077
1581.3429,98.9376
1582.3071,98.8606
1583.2714,98.7843
1584.2356,98.7142
1585.1998,98.6519
1586.1641,98.5959
1587.1283,98.545
1588.0925,98.4995
1589.0568,98.461
1590.0210,98.4302
1590.9852,98.407
1591.9495,98.3903
1592.9137,98.3788
1593.8779,98.3711
1594.8422,98.3652
1595.8064,98.3591
1596.7706,98.3521
1597.7349,98.3445
1598.6991,98.3378
1599.6633,98.3333
1600.6276,98.3318
1601.5918,98.333
1602.5560,98.3362
1603.5203,98.3408
1604.4845,98.3473
1605.4487,98.357
1606.4130,98.372
1607.3772,98.3927
1608.3414,98.4163
1609.3057,98.4359
1610.2699,98.4442
1611.2341,98.437
1612.1984,98.416
1613.1626,98.3903
1614.1268,98.3774
1615.0911,98.3934
1616.0553,98.4329
1617.0195,98.4693
1617.9838,98.4859
1618.9480,98.4878
1619.9122,98.4853
1620.8765,98.4865
1621.8407,98.4972
1622.8049,98.5163
1623.7692,98.5331
1624.7334,98.5372
1625.6976,98.5286
1626.6619,98.5148
1627.6261,98.5013
1628.5903,98.4873
1629.5546,98.4671
1630.5188,98.4345
1631.4830,98.3886
1632.4473,98.3404
1633.4115,98.3146
1634.3757,98.3351
1635.3400,98.3869
1636.3042,98.4146
1637.2684,98.3987
1638.2327,98.369
1639.1969,98.3452
1640.1611,98.3235
1641.1254,98.2948
1642.0896,98.2557
1643.0538,98.2143
1644.0181,98.1911
1644.9823,98.2073
1645.9465,98.2548
1646.9108,98.2866
1647.8750,98.2691
1648.8392,98.212
1649.8035,98.1435
1650.7677,98.102
1651.7319,98.136
1652.6962,98.2467
1653.6604,98.3324
1654.6246,98.3408
1655.5889,98.333
1656.5531,98.3386
1657.5173,98.3455
1658.4816,98.3451
1659.4458,98.3451
1660.4100,98.3612
1661.3743,98.3999
1662.3385,98.4488
1663.3027,98.488
1664.2670,98.5094
1665.2312,98.5178
1666.1954,98.5268
1667.1597,98.5558
1668.1239,98.6209
1669.0881,98.7145
1670.0524,98.8014
1671.0166,98.8529
1671.9808,98.8725
1672.9451,98.8816
1673.9093,98.898
1674.8735,98.928
1675.8378,98.9653
1676.8020,98.9977
1677.7662,99.0158
1678.7305,99.015
1679.6947,98.9973
1680.6589,98.977
1681.6232,98.9811
1682.5874,99.0297
1683.5516,99.0971
1684.5159,99.1294
1685.4801,99.1246
1686.4443,99.1178
1687.4086,99.1212
1688.3728,99.1259
1689.3370,99.1202
1690.3013,99.0982
1691.2655,99.0599
1692.2297,99.0113
1693.1940,98.9631
1694.1582,98.9284
1695.1224,98.9182
1696.0867,98.934
1697.0509,98.9641
1698.0151,98.9893
1698.9794,98.9971
1699.9436,98.9927
1700.9078,98.9922
1701.8721,99.0054
1702.8363,99.0297
1703.8005,99.056
1704.7648,99.0758
1705.7290,99.0827
1706.6932,99.0737
1707.6575,99.0501
1708.6217,99.0158
1709.5859,98.9726
1710.5502,98.92
1711.5144,98.858
1712.4786,98.7914
1713.4429,98.7319
1714.4071,98.6961
1715.3713,98.6921
1716.3356,98.6977
1717.2998,98.6728
1718.2640,98.6156
1719.2283,98.5589
1720.1925,98.5188
1721.1567,98.4883
1722.1210,98.4567
1723.0852,98.419
1724.0494,98.376
1725.0137,98.3317
1725.9779,98.2894
1726.9421,98.2494
1727.9064,98.2096
1728.8706,98.1684
1729.8348,98.1303
1730.7991,98.1098
1731.7633,98.1263
1732.7275,98.1835
1733.6918,98.2538
1734.6560,98.3048
1735.6202,98.334
1736.5845,98.3554
1737.5487,98.3801
1738.5129,98.4152
1739.4772,98.4644
1740.4414,98.5237
1741.4056,98.5821
1742.3699,98.6299
1743.3341,98.6652
1744.2983,98.6923
1745.2626,98.7174
1746.2268,98.7477
1747.1910,98.7917
1748.1553,98.8544
1749.1195,98.9301
1750.0837,99.0036
1751.0480,99.0643
1752.0122,99.114
1752.9764,99.1597
1753.9407,99.2063
1754.9049,99.2561
1755.8691,99.3075
1756.8334,99.3556
1757.7976,99.396
1758.7618,99.43
1759.7261,99.4644
1760.6903,99.506
1761.6545,99.5539
1762.6188,99.5997
1763.5830,99.6342
1764.5472,99.6538
1765.5115,99.6614
1766.4757,99.6638
1767.4399,99.6692
1768.4042,99.6857
1769.3684,99.7198
1770.3326,99.7725
1771.2969,99.8335
1772.2611,99.8833
1773.2253,99.9125
1774.1896,99.9222
1775.1538,99.9223
1776.1180,99.9204
1777.0823,99.9208
1778.0465,99.926
1779.0107,99.9361
1779.9750,99.9473
1780.9392,99.9546
1781.9034,99.9571
1782.8677,99.9582
1783.8319,99.962
1784.7961,99.9683
1785.7604,99.9721
1786.7246,99.9676
1787.6888,99.9527
1788.6531,99.933
1789.6173,99.9215
1790.5815,99.9316
1791.5458,99.9641
1792.5100,100.002
1793.4742,100.027
1794.4385,100.036
1795.4027,100.034
1796.3669,100.026
1797.3312,100.02
1798.2954,100.02
1799.2596,100.028
1800.2239,100.042
1801.1881,100.055
1802.1523,100.061
1803.1166,100.061
1804.0808,100.054
1805.0450,100.044
1806.0093,100.032
1806.9735,100.024
1807.9377,100.023
1808.9020,100.031
1809.8662,100.046
1810.8304,100.06
1811.7947,100.069
1812.7589,100.069
1813.7231,100.064
1814.6874,100.057
1815.6516,100.053
1816.6158,100.053
1817.5801,100.054
1818.5443,100.051
1819.5085,100.041
1820.4728,100.025
1821.4370,100.008
1822.4012,99.9943
1823.3655,99.9882
1824.3297,99.9889
1825.2939,99.9931
1826.2582,99.9987
1827.2224,100.007
1828.1866,100.02
1829.1509,100.035
1830.1151,100.048
1831.0793,100.053
1832.0436,100.053
1833.0078,100.05
1833.9720,100.05
1834.9363,100.053
1835.9005,100.058
1836.8647,100.06
1837.8290,100.052
1838.7932,100.029
1839.7574,99.9951
1840.7217,99.9602
1841.6859,99.9387
1842.6501,99.9431
1843.6144,99.9736
1844.5786,100.015
1845.5428,100.048
1846.5071,100.065
1847.4713,100.07
1848.4355,100.068
1849.3998,100.063
1850.3640,100.059
1851.3282,100.055
1852.2925,100.051
1853.2567,100.047
1854.2209,100.043
1855.1852,100.038
1856.1494,100.033
1857.1136,100.029
1858.0779,100.026
1859.0421,100.025
1860.0063,100.024
1860.9706,100.023
1861.9348,100.018
1862.8990,100.008
1863.8633,99.9957
1864.8275,99.9845
1865.7917,99.983
1866.7560,99.9985
1867.7202,100.029
1868.6844,100.062
1869.6487,100.083
1870.6129,100.089
1871.5771,100.085
1872.5414,100.076
1873.5056,100.066
1874.4698,100.058
1875.4341,100.053
1876.3983,100.051
1877.3625,100.049
1878.3268,100.047
1879.2910,100.046
1880.2552,100.047
1881.2195,100.05
1882.1837,100.053
1883.1479,100.052
1884.1122,100.047
1885.0764,100.04
1886.0406,100.034
1887.0049,100.035
1887.9691,100.044
1888.9333,100.057
1889.8976,100.07
1890.8618,100.076
1891.8260,100.075
1892.7903,100.071
1893.7545,100.069
1894.7188,100.069
1895.6830,100.071
1896.6472,100.072
1897.6115,100.068
1898.5757,100.063
1899.5399,100.059
1900.5042,100.058
1901.4684,100.061
1902.4326,100.067
1903.3969,100.072
1904.3611,100.074
1905.3253,100.074
1906.2896,100.073
1907.2538,100.076
1908.2180,100.084
1909.1823,100.095
1910.1465,100.106
1911.1107,100.113
1912.0750,100.112
1913.0392,100.104
1914.0034,100.092
1914.9677,100.082
1915.9319,100.077
1916.8961,100.078
1917.8604,100.082
1918.8246,100.087
1919.7888,100.091
1920.7531,100.098
1921.7173,100.108
1922.6815,100.12
1923.6458,100.129
1924.6100,100.132
1925.5742,100.128
1926.5385,100.118
1927.5027,100.108
1928.4669,100.101
1929.4312,100.098
1930.3954,100.098
1931.3596,100.099
1932.3239,100.098
1933.2881,100.097
1934.2523,100.095
1935.2166,100.094
1936.1808,100.091
1937.1450,100.086
1938.1093,100.079
1939.0735,100.073
1940.0377,100.072
1941.0020,100.079
1941.9662,100.089
1942.9304,100.1
1943.8947,100.105
1944.8589,100.104
1945.8231,100.099
1946.7874,100.093
1947.7516,100.089
1948.7158,100.086
1949.6801,100.085
1950.6443,100.084
1951.6085,100.082
1952.5728,100.081
1953.5370,100.081
1954.5012,100.08
1955.4655,100.079
1956.4297,100.076
1957.3939,100.072
1958.3582,100.07
1959.3224,100.069
1960.2866,100.069
1961.2509,100.07
1962.2151,100.069
1963.1793,100.069
1964.1436,100.069
1965.1078,100.071
1966.0720,100.072
1967.0363,100.071
1968.0005,100.066
1968.9647,100.059
1969.9290,100.051
1970.8932,100.047
1971.8574,100.047
1972.8217,100.052
1973.7859,100.057
1974.7501,100.061
1975.7144,100.062
1976.6786,100.062
1977.6428,100.06
1978.6071,100.06
1979.5713,100.06
1980.5355,100.059
1981.4998,100.058
1982.4640,100.057
1983.4282,100.056
1984.3925,100.054
1985.3567,100.053
1986.3209,100.049
1987.2852,100.044
1988.2494,100.039
1989.2136,100.037
1990.1779,100.04
1991.1421,100.046
1992.1063,100.054
1993.0706,100.059
1994.0348,100.061
1994.9990,100.06
1995.9633,100.057
1996.9275,100.054
1997.8917,100.052
1998.8560,100.052
1999.8202,100.051
2000.7844,100.05
2001.7487,100.049
2002.7129,100.047
2003.6771,100.045
2004.6414,100.042
2005.6056,100.039
2006.5698,100.036
2007.5341,100.033
2008.4983,100.029
2009.4625,100.022
2010.4268,100.013
2011.3910,100.004
2012.3552,99.9979
2013.3195,99.9973
2014.2837,100.004
2015.2479,100.016
2016.2122,100.029
2017.1764,100.038
2018.1406,100.04
2019.1049,100.035
2020.0691,100.026
2021.0333,100.017
2021.9976,100.01
2022.9618,100.007
2023.9260,100.007
2024.8903,100.008
2025.8545,100.008
2026.8187,100.007
2027.7830,100.005
2028.7472,100.002
2029.7114,99.9997
2030.6757,99.9977
2031.6399,99.9963
2032.6041,99.9956
2033.5684,99.9953
2034.5326,99.9952
2035.4968,99.9951
2036.4611,99.9951
2037.4253,99.9954
2038.3895,99.9962
2039.3538,99.9975
2040.3180,99.9989
2041.2822,99.9998
2042.2465,99.9997
2043.2107,99.9987
2044.1749,99.9968
2045.1392,99.9945
2046.1034,99.9916
2047.0676,99.9884
2048.0320,99.9853
2048.9961,99.9831
2049.9604,99.983
2050.9246,99.9855
2051.8889,99.9899
2052.8530,99.9945
2053.8174,99.9975
2054.7815,99.9976
2055.7458,99.9947
2056.7100,99.9903
2057.6743,99.9858
2058.6384,99.9826
2059.6028,99.9813
2060.5669,99.9819
2061.5313,99.9839
2062.4954,99.9869
2063.4597,99.9899
2064.4238,99.9918
2065.3882,99.9916
2066.3523,99.9891
2067.3167,99.985
2068.2808,99.9809
2069.2451,99.9784
2070.2092,99.9782
2071.1736,99.9798
2072.1377,99.9821
2073.1021,99.9835
2074.0662,99.9831
2075.0305,99.9807
2075.9946,99.977
2076.9590,99.973
2077.9231,99.9697
2078.8875,99.9679
2079.8516,99.9678
2080.8159,99.9694
2081.7800,99.972
2082.7444,99.9755
2083.7085,99.9796
2084.6729,99.9844
2085.6370,99.9898
2086.6013,99.9953
2087.5654,100
2088.5298,100.003
2089.4939,100.004
2090.4583,100.001
2091.4224,99.997
2092.3867,99.9922
2093.3508,99.9884
2094.3152,99.9867
2095.2793,99.9868
2096.2437,99.9876
2097.2078,99.9878
2098.1721,99.9867
2099.1362,99.9849
2100.1006,99.9841
2101.0647,99.9852
2102.0291,99.9885
2102.9932,99.9924
2103.9575,99.9948
2104.9216,99.9944
2105.8860,99.9914
2106.8501,99.9878
2107.8145,99.9854
2108.7786,99.9851
2109.7429,99.9864
2110.7070,99.988
2111.6714,99.9888
2112.6355,99.9885
2113.5999,99.9877
2114.5640,99.9869
2115.5283,99.9864
2116.4924,99.9862
2117.4568,99.9862
2118.4209,99.9861
2119.3853,99.9858
2120.3494,99.9849
2121.3137,99.9831
2122.2778,99.9805
2123.2422,99.9778
2124.2063,99.9762
2125.1707,99.9765
2126.1348,99.9787
2127.0991,99.9815
2128.0632,99.9833
2129.0276,99.9824
2129.9917,99.9787
2130.9561,99.9736
2131.9202,99.9696
2132.8845,99.9693
2133.8486,99.9736
2134.8130,99.9816
2135.7771,99.9906
2136.7415,99.9973
2137.7056,99.9996
2138.6699,99.9971
2139.6340,99.9915
2140.5984,99.985
2141.5625,99.9799
2142.5269,99.977
2143.4910,99.9764
2144.4553,99.9776
2145.4194,99.9802
2146.3838,99.9837
2147.3479,99.9872
2148.3123,99.9898
2149.2764,99.9911
2150.2407,99.9912
2151.2048,99.9911
2152.1692,99.9921
2153.1333,99.9945
2154.0977,99.9978
2155.0618,100.001
2156.0261,100.003
2156.9902,100.003
2157.9546,100.002
2158.9187,100.001
2159.8831,99.9999
2160.8472,99.9999
2161.8115,100.001
2162.7756,100.002
2163.7400,100.005
2164.7041,100.007
2165.6685,100.01
2166.6326,100.011
2167.5969,100.013
2168.5610,100.013
2169.5254,100.015
2170.4895,100.017
2171.4539,100.019
2172.4180,100.021
2173.3823,100.023
2174.3464,100.024
2175.3108,100.024
2176.2749,100.023
2177.2393,100.023
2178.2034,100.023
2179.1677,100.025
2180.1318,100.028
2181.0962,100.033
2182.0603,100.038
2183.0247,100.044
2183.9888,100.049
2184.9531,100.052
2185.9172,100.052
2186.8816,100.048
2187.8457,100.042
2188.8101,100.036
2189.7742,100.032
2190.7385,100.033
2191.7026,100.038
2192.6670,100.045
2193.6311,100.052
2194.5955,100.057
2195.5596,100.06
2196.5239,100.06
2197.4880,100.061
2198.4524,100.061
2199.4165,100.061
2200.3809,100.062
2201.3450,100.063
2202.3093,100.065
2203.2734,100.065
2204.2378,100.065
2205.2019,100.063
2206.1663,100.058
2207.1304,100.054
2208.0947,100.05
2209.0588,100.051
2210.0232,100.056
2210.9873,100.063
2211.9517,100.07
2212.9158,100.074
2213.8801,100.073
2214.8442,100.069
2215.8086,100.063
2216.7727,100.059
2217.7371,100.06
2218.7012,100.065
2219.6655,100.074
2220.6296,100.082
2221.5940,100.086
2222.5581,100.085
2223.5225,100.079
2224.4866,100.069
2225.4509,100.06
2226.4150,100.055
2227.3794,100.055
2228.3435,100.058
2229.3079,100.062
2230.2720,100.065
2231.2363,100.066
2232.2004,100.065
2233.1648,100.065
2234.1289,100.066
2235.0933,100.068
2236.0574,100.07
2237.0217,100.072
2237.9858,100.072
2238.9502,100.07
2239.9143,100.069
2240.8787,100.068
2241.8428,100.069
2242.8071,100.07
2243.7712,100.072
2244.7356,100.073
2245.6997,100.073
2246.6641,100.071
2247.6282,100.069
2248.5925,100.066
2249.5566,100.062
2250.5210,100.057
2251.4851,100.052
2252.4495,100.046
2253.4136,100.039
2254.3779,100.032
2255.3420,100.024
2256.3064,100.018
2257.2705,100.013
2258.2349,100.011
2259.1990,100.012
2260.1633,100.015
2261.1274,100.02
2262.0918,100.024
2263.0559,100.027
2264.0203,100.029
2264.9844,100.029
2265.9487,100.027
2266.9128,100.023
2267.8772,100.018
2268.8413,100.011
2269.8057,100.003
2270.7698,99.9953
2271.7341,99.9885
2272.6982,99.9839
2273.6626,99.9825
2274.6267,99.9848
2275.5911,99.9901
2276.5552,99.9964
2277.5195,100.002
2278.4836,100.004
2279.4480,100.003
2280.4121,99.9991
2281.3765,99.9936
2282.3406,99.9865
2283.3049,99.9769
2284.2690,99.9636
2285.2334,99.9205
2286.1975,99.8733
2287.1619,99.8239
2288.1260,99.774
2289.0903,99.7244
2290.0544,99.6753
2291.0188,99.6264
2291.9829,99.5774
2292.9473,99.5281
2293.9114,99.478
2294.8757,99.4262
2295.8398,99.3715
2296.8042,99.3127
2297.7683,99.249
2298.7327,99.1803
2299.6968,99.1062
2300.6611,99.0259
2301.6252,98.9385
2302.5896,98.8434
2303.5537,98.7424
2304.5181,98.639
2305.4822,98.5377
2306.4465,98.4416
2307.4106,98.3503
2308.3750,98.2604
2309.3391,98.1671
2310.3035,98.0678
2311.2676,97.9632
2312.2319,97.8568
2313.1960,97.7515
2314.1604,97.647
2315.1245,97.5398
2316.0889,97.4265
2317.0530,97.3073
2318.0173,97.188
2318.9814,97.0793
2319.9458,96.9935
2320.9099,96.9407
2321.8743,96.9255
2322.8384,96.9463
2323.8027,96.9947
2324.7668,97.0572
2325.7312,97.1174
2326.6953,97.1597
2327.6597,97.174
2328.6238,97.1595
2329.5881,97.1257
2330.5522,97.0906
2331.5166,97.0721
2332.4807,97.0799
2333.4451,97.1126
2334.4092,97.1617
2335.3735,97.2183
2336.3376,97.2762
2337.3020,97.3313
2338.2661,97.3799
2339.2305,97.4185
2340.1946,97.4428
2341.1589,97.4386
2342.1230,97.3745
2343.0874,97.2236
2344.0515,97.0184
2345.0159,96.8522
2345.9800,96.7868
2346.9443,96.7945
2347.9084,96.8002
2348.8728,96.7463
2349.8369,96.6294
2350.8013,96.5073
2351.7654,96.4801
2352.7297,96.6416
2353.6938,97.0129
2354.6582,97.5192
2355.6223,98.0597
2356.5867,98.5872
2357.5508,99.0918
2358.5151,99.5339
2359.4792,99.8337
2360.4436,99.9679
2361.4077,99.9237
2362.3721,99.7105
2363.3362,99.3777
2364.3005,98.9728
2365.2646,98.542
2366.2290,98.124
2367.1931,97.7414
2368.1575,97.4037
2369.1216,97.1182
2370.0859,96.897
2371.0500,96.7531
2372.0144,96.6929
2372.9785,96.713
2373.9429,96.8024
2374.9070,96.9475
2375.8713,97.1357
2376.8354,97.3558
2377.7998,97.597
2378.7639,97.8471
2379.7283,98.0933
2380.6924,98.3234
2381.6567,98.5285
2382.6208,98.704
2383.5852,98.8502
2384.5493,98.9707
2385.5137,99.0709
2386.4778,99.1561
2387.4421,99.23
2388.4063,99.2951
2389.3706,99.3525
2390.3347,99.4036
2391.2991,99.4503
2392.2632,99.4951
2393.2275,99.541
2394.1917,99.5904
2395.1560,99.644
2396.1201,99.7003
2397.0845,99.756
2398.0486,99.8078
2399.0129,99.8532
2399.9771,99.8927
2400.9414,99.929
2401.9055,99.9664
2402.8699,100.008
2403.8340,100.055
2404.7983,100.091
2405.7625,100.097
2406.7268,100.103
2407.6909,100.107
2408.6553,100.11
2409.6194,100.11
2410.5837,100.109
2411.5479,100.106
2412.5122,100.1
2413.4763,100.092
2414.4407,100.085
2415.4048,100.079
2416.3691,100.076
2417.3333,100.075
2418.2976,100.075
2419.2617,100.076
2420.2261,100.077
2421.1902,100.077
2422.1545,100.076
2423.1187,100.074
2424.0830,100.071
2425.0471,100.07
2426.0115,100.071
2426.9756,100.074
2427.9399,100.077
2428.9041,100.079
2429.8684,100.077
2430.8325,100.071
2431.7969,100.062
2432.7610,100.053
2433.7253,100.046
2434.6895,100.041
2435.6538,100.039
2436.6179,100.038
2437.5823,100.039
2438.5464,100.039
2439.5107,100.039
2440.4749,100.039
2441.4392,100.038
2442.4033,100.038
2443.3677,100.038
2444.3318,100.038
2445.2961,100.039
2446.2603,100.04
2447.2246,100.04
2448.1887,100.041
2449.1531,100.04
2450.1172,100.04
2451.0815,100.04
2452.0457,100.039
2453.0100,100.037
2453.9741,100.033
2454.9385,100.027
2455.9026,100.02
2456.8669,100.014
2457.8311,100.01
2458.7954,100.01
2459.7595,100.012
2460.7239,100.016
2461.6880,100.02
2462.6523,100.021
2463.6165,100.02
2464.5808,100.016
2465.5449,100.01
2466.5093,100.006
2467.4734,100.005
2468.4377,100.008
2469.4019,100.014
2470.3662,100.02
2471.3303,100.021
2472.2947,100.017
2473.2588,100.009
2474.2231,100.002
2475.1873,99.9992
2476.1516,100.002
2477.1157,100.008
2478.0801,100.014
2479.0442,100.017
2480.0085,100.014
2480.9727,100.007
2481.9370,100.001
2482.9011,99.9964
2483.8655,99.9958
2484.8296,99.9986
2485.7939,100.003
2486.7581,100.009
2487.7224,100.013
2488.6865,100.015
2489.6509,100.014
2490.6150,100.009
2491.5793,100.001
2492.5435,99.9918
2493.5078,99.9837
2494.4719,99.9777
2495.4363,99.9744
2496.4004,99.9733
2497.3647,99.9736
2498.3289,99.9747
2499.2932,99.9766
2500.2573,99.9793
2501.2217,99.9823
2502.1858,99.9845
2503.1501,99.9843
2504.1143,99.9806
2505.0786,99.974
2506.0427,99.9663
2507.0071,99.96
2507.9712,99.9571
2508.9355,99.9577
2509.8997,99.9602
2510.8640,99.9627
2511.8281,99.9639
2512.7925,99.9638
2513.7566,99.9633
2514.7209,99.9632
2515.6851,99.9631
2516.6494,99.9624
2517.6135,99.9607
2518.5779,99.9593
2519.5420,99.9597
2520.5063,99.9632
2521.4705,99.9687
2522.4348,99.9737
2523.3989,99.9748
2524.3633,99.9708
2525.3274,99.963
2526.2917,99.9549
2527.2559,99.9502
2528.2202,99.9505
2529.1843,99.9548
2530.1487,99.9604
2531.1128,99.9649
2532.0771,99.967
2533.0413,99.9672
2534.0056,99.9664
2534.9697,99.965
2535.9341,99.9627
2536.8982,99.9588
2537.8625,99.9532
2538.8267,99.9475
2539.7910,99.9439
2540.7551,99.9449
2541.7195,99.9511
2542.6836,99.9608
2543.6479,99.9706
2544.6121,99.9769
2545.5764,99.9777
2546.5405,99.9735
2547.5049,99.9669
2548.4690,99.9611
2549.4333,99.9578
2550.3975,99.9574
2551.3618,99.9584
2552.3259,99.9592
2553.2903,99.959
2554.2544,99.9579
2555.2188,99.9572
2556.1829,99.9579
2557.1472,99.9607
2558.1113,99.9654
2559.0757,99.971
2560.0398,99.9757
2561.0042,99.9778
2561.9683,99.9759
2562.9326,99.9697
2563.8967,99.9605
2564.8611,99.9511
2565.8252,99.9444
2566.7896,99.9426
2567.7537,99.946
2568.7180,99.9529
2569.6821,99.9605
2570.6465,99.9659
2571.6106,99.9675
2572.5750,99.9655
2573.5391,99.9614
2574.5034,99.9575
2575.4675,99.9552
2576.4319,99.9549
2577.3960,99.9557
2578.3604,99.9559
2579.3245,99.9548
2580.2888,99.9521
2581.2529,99.949
2582.2173,99.9467
2583.1814,99.9458
2584.1458,99.9463
2585.1099,99.9473
2586.0742,99.9479
2587.0383,99.9479
2588.0027,99.9476
2588.9668,99.9475
2589.9312,99.9478
2590.8953,99.948
2591.8596,99.9473
2592.8237,99.9454
2593.7881,99.9423
2594.7522,99.9392
2595.7166,99.9372
2596.6807,99.9374
2597.6450,99.9398
2598.6091,99.9439
2599.5735,99.949
2600.5376,99.9542
2601.5020,99.9589
2602.4661,99.962
2603.4304,99.9623
2604.3945,99.9585
2605.3589,99.9501
2606.3230,99.9383
2607.2874,99.9258
2608.2515,99.9162
2609.2158,99.9121
2610.1799,99.9141
2611.1443,99.9195
2612.1084,99.9245
2613.0728,99.9253
2614.0369,99.9209
2615.0012,99.9133
2615.9653,99.9064
2616.9297,99.9039
2617.8938,99.9067
2618.8582,99.9129
2619.8223,99.9185
2620.7866,99.9199
2621.7507,99.9158
2622.7151,99.9075
2623.6792,99.8981
2624.6436,99.8903
2625.6077,99.8852
2626.5720,99.8824
2627.5361,99.8802
2628.5005,99.8774
2629.4646,99.8739
2630.4290,99.8703
2631.3931,99.8676
2632.3574,99.8664
2633.3215,99.8666
2634.2859,99.8673
2635.2500,99.8679
2636.2144,99.8682
2637.1785,99.8685
2638.1428,99.8701
2639.1069,99.8734
2640.0713,99.8783
2641.0354,99.8829
2641.9998,99.8851
2642.9639,99.8828
2643.9282,99.8757
2644.8923,99.8655
2645.8567,99.8555
2646.8208,99.8488
2647.7852,99.8472
2648.7493,99.8498
2649.7136,99.854
2650.6777,99.8564
2651.6421,99.8544
2652.6062,99.8475
2653.5706,99.8371
2654.5347,99.8265
2655.4990,99.8187
2656.4631,99.8157
2657.4275,99.8174
2658.3916,99.8217
2659.3560,99.8258
2660.3201,99.8276
2661.2844,99.826
2662.2485,99.8216
2663.2129,99.8158
2664.1770,99.8103
2665.1414,99.8063
2666.1055,99.8044
2667.0698,99.805
2668.0339,99.8079
2668.9983,99.8117
2669.9624,99.8146
2670.9268,99.8141
2671.8909,99.8091
2672.8552,99.7999
2673.8193,99.7885
2674.7837,99.7774
2675.7478,99.7685
2676.7122,99.7622
2677.6763,99.7582
2678.6406,99.756
2679.6047,99.7553
2680.5691,99.7559
2681.5332,99.7568
2682.4976,99.7564
2683.4617,99.7532
2684.4260,99.7466
2685.3901,99.7383
2686.3545,99.7311
2687.3186,99.7276
2688.2830,99.7288
2689.2471,99.7335
2690.2114,99.7392
2691.1755,99.7433
2692.1399,99.7441
2693.1040,99.7412
2694.0684,99.7351
2695.0325,99.7267
2695.9968,99.717
2696.9609,99.707
2697.9253,99.6977
2698.8894,99.6898
2699.8538,99.6833
2700.8179,99.6779
2701.7822,99.6737
2702.7463,99.6709
2703.7107,99.6702
2704.6748,99.6716
2705.6392,99.6743
2706.6033,99.6763
2707.5676,99.6754
2708.5317,99.6707
2709.4961,99.663
2710.4602,99.6546
2711.4246,99.6481
2712.3887,99.6455
2713.3530,99.6469
2714.3171,99.6515
2715.2815,99.6575
2716.2456,99.6633
2717.2100,99.6672
2718.1741,99.6683
2719.1384,99.6659
2720.1025,99.6603
2721.0669,99.6523
2722.0310,99.6433
2722.9954,99.6343
2723.9595,99.6258
2724.9238,99.618
2725.8879,99.6109
2726.8523,99.6049
2727.8164,99.6004
2728.7808,99.5977
2729.7449,99.5965
2730.7092,99.596
2731.6733,99.5956
2732.6377,99.5951
2733.6018,99.5951
2734.5662,99.596
2735.5303,99.5979
2736.4946,99.5996
2737.4587,99.5996
2738.4231,99.5962
2739.3872,99.5891
2740.3516,99.5794
2741.3157,99.5694
2742.2800,99.5621
2743.2441,99.5596
2744.2085,99.5622
2745.1726,99.5678
2746.1370,99.573
2747.1011,99.5746
2748.0654,99.5714
2749.0295,99.5644
2749.9939,99.5566
2750.9580,99.5508
2751.9224,99.5485
2752.8865,99.5488
2753.8508,99.5497
2754.8149,99.549
2755.7793,99.5453
2756.7434,99.5389
2757.7078,99.531
2758.6719,99.5233
2759.6362,99.5174
2760.6003,99.5146
2761.5647,99.5149
2762.5288,99.5174
2763.4932,99.5206
2764.4573,99.5233
2765.4216,99.5251
2766.3857,99.5264
2767.3501,99.5279
2768.3142,99.5293
2769.2786,99.5288
2770.2427,99.5241
2771.2070,99.5136
2772.1711,99.4979
2773.1355,99.4802
2774.0996,99.4649
2775.0640,99.4556
2776.0281,99.4539
2776.9924,99.4586
2777.9565,99.4666
2778.9209,99.4746
2779.8850,99.48
2780.8494,99.4815
2781.8135,99.4794
2782.7778,99.4749
2783.7419,99.4692
2784.7063,99.4632
2785.6704,99.4571
2786.6348,99.4504
2787.5989,99.4426
2788.5632,99.4338
2789.5273,99.4248
2790.4917,99.4168
2791.4558,99.4109
2792.4202,99.4077
2793.3843,99.4071
2794.3486,99.4084
2795.3127,99.4102
2796.2771,99.4108
2797.2412,99.4084
2798.2056,99.4015
2799.1697,99.3899
2800.1340,99.3749
2801.0981,99.3592
2802.0625,99.3457
2803.0266,99.3367
2803.9910,99.3326
2804.9551,99.3321
2805.9194,99.3326
2806.8835,99.3314
2807.8479,99.3265
2808.8120,99.3175
2809.7764,99.3052
2810.7405,99.2919
2811.7048,99.2803
2812.6689,99.272
2813.6333,99.2672
2814.5974,99.2639
2815.5618,99.2591
2816.5259,99.2506
2817.4902,99.238
2818.4543,99.2229
2819.4187,99.2078
2820.3828,99.1951
2821.3472,99.1857
2822.3113,99.179
2823.2756,99.1736
2824.2397,99.1677
2825.2041,99.1599
2826.1682,99.1494
2827.1326,99.1361
2828.0967,99.1206
2829.0610,99.1043
2830.0251,99.0883
2830.9895,99.0737
2831.9536,99.0612
2832.9180,99.0516
2833.8821,99.0457
2834.8464,99.0447
2835.8105,99.0495
2836.7749,99.0601
2837.7390,99.0754
2838.7034,99.0937
2839.6675,99.1142
2840.6318,99.1376
2841.5959,99.1658
2842.5603,99.2017
2843.5244,99.2476
2844.4888,99.305
2845.4529,99.3738
2846.4172,99.452
2847.3813,99.535
2848.3457,99.6161
2849.3098,99.6772
2850.2742,99.7198
2851.2383,99.74
2852.2026,99.7371
2853.1667,99.7141
2854.1311,99.6759
2855.0952,99.6278
2856.0596,99.5739
2857.0237,99.5171
2857.9880,99.4597
2858.9521,99.4037
2859.9165,99.3507
2860.8806,99.3015
2861.8450,99.2566
2862.8091,99.2163
2863.7734,99.1812
2864.7375,99.1516
2865.7019,99.1279
2866.6660,99.1096
2867.6304,99.0952
2868.5945,99.083
2869.5588,99.0713
2870.5229,99.0585
2871.4873,99.0439
2872.4514,99.0278
2873.4158,99.0114
2874.3799,98.9976
2875.3442,98.9895
2876.3083,98.9901
2877.2727,99.0005
2878.2368,99.0191
2879.2012,99.0422
2880.1653,99.0647
2881.1296,99.0826
2882.0938,99.0942
2883.0581,99.1005
2884.0222,99.1044
2884.9866,99.1093
2885.9507,99.117
2886.9150,99.1275
2887.8792,99.1401
2888.8435,99.1537
2889.8076,99.1675
2890.7720,99.1807
2891.7361,99.192
2892.7004,99.2014
2893.6646,99.2113
2894.6289,99.228
2895.5930,99.2596
2896.5574,99.3117
2897.5215,99.382
2898.4858,99.4593
2899.4500,99.5264
2900.4143,99.5682
2901.3784,99.5795
2902.3428,99.5671
2903.3069,99.5456
2904.2712,99.5299
2905.2354,99.5289
2906.1997,99.5445
2907.1638,99.5741
2908.1282,99.6144
2909.0923,99.6627
2910.0566,99.7175
2911.0208,99.7769
2911.9851,99.8385
2912.9492,99.9007
2913.9136,99.9632
2914.8777,100.026
2915.8420,100.09
2916.8062,100.152
2917.7705,100.208
2918.7346,100.254
2919.6990,100.286
2920.6631,100.305
2921.6274,100.311
2922.5916,100.307
2923.5559,100.294
2924.5200,100.273
2925.4844,100.242
2926.4485,100.2
2927.4128,100.147
2928.3770,100.081
2929.3413,100.007
2930.3054,99.9302
2931.2698,99.8568
2932.2339,99.7926
2933.1982,99.7397
2934.1624,99.6968
2935.1267,99.6596
2936.0908,99.6238
2937.0552,99.5874
2938.0193,99.5513
2938.9836,99.5186
2939.9478,99.4923
2940.9121,99.4739
2941.8762,99.4625
2942.8406,99.4562
2943.8047,99.4538
2944.7690,99.4564
2945.7332,99.4669
2946.6975,99.4883
2947.6616,99.522
2948.6260,99.5659
2949.5901,99.6155
2950.5544,99.6657
2951.5186,99.7134
2952.4829,99.7582
2953.4470,99.8019
2954.4114,99.8465
2955.3755,99.8921
2956.3398,99.937
2957.3040,99.9786
2958.2683,100.015
2959.2324,100.044
2960.1968,100.07
2961.1609,100.093
2962.1252,100.116
2963.0894,100.14
2964.0537,100.164
2965.0178,100.186
2965.9822,100.205
2966.9463,100.221
2967.9106,100.235
2968.8748,100.247
2969.8391,100.257
2970.8032,100.261
2971.7676,100.257
2972.7317,100.245
2973.6960,100.226
2974.6602,100.204
2975.6245,100.186
2976.5886,100.175
2977.5530,100.171
2978.5171,100.172
2979.4814,100.172
2980.4456,100.171
2981.4099,100.172
2982.3740,100.176
2983.3384,100.189
2984.3025,100.213
2985.2668,100.246
2986.2310,100.277
2987.1953,100.292
2988.1594,100.277
2989.1238,100.231
2990.0879,100.161
2991.0522,100.08
2992.0164,100.004
2992.9807,99.9419
2993.9448,99.8942
2994.9092,99.8549
2995.8733,99.8165
2996.8376,99.7747
2997.8018,99.7301
2998.7661,99.686
2999.7302,99.645
3000.6946,99.6066
3001.6587,99.5671
3002.6230,99.522
3003.5872,99.4687
3004.5515,99.4081
3005.5156,99.3439
3006.4800,99.2812
3007.4441,99.2237
3008.4084,99.173
3009.3726,99.1284
3010.3369,99.0879
3011.3010,99.0485
3012.2654,99.0074
3013.2295,98.9625
3014.1938,98.9124
3015.1580,98.8577
3016.1223,98.8006
3017.0864,98.7443
3018.0508,98.6923
3019.0149,98.6466
3019.9792,98.6071
3020.9434,98.5714
3021.9077,98.5359
3022.8718,98.498
3023.8362,98.4567
3024.8003,98.414
3025.7646,98.3735
3026.7288,98.3388
3027.6931,98.3125
3028.6572,98.2938
3029.6216,98.2793
3030.5857,98.2631
3031.5500,98.2399
3032.5142,98.2074
3033.4785,98.1675
3034.4426,98.1256
3035.4070,98.0878
3036.3711,98.058
3037.3354,98.0364
3038.2996,98.0195
3039.2639,98.0027
3040.2280,97.9829
3041.1924,97.9598
3042.1565,97.9356
3043.1208,97.9133
3044.0850,97.8943
3045.0493,97.8782
3046.0134,97.8629
3046.9778,97.8466
3047.9419,97.8288
3048.9063,97.8102
3049.8704,97.7926
3050.8347,97.7771
3051.7988,97.764
3052.7632,97.7525
3053.7273,97.7417
3054.6917,97.7309
3055.6558,97.7194
3056.6201,97.7065
3057.5842,97.6917
3058.5486,97.6747
3059.5127,97.6565
3060.4771,97.6391
3061.4412,97.6253
3062.4055,97.6166
3063.3696,97.6124
3064.3340,97.6092
3065.2981,97.6023
3066.2625,97.5883
3067.2266,97.5669
3068.1909,97.5414
3069.1550,97.5167
3070.1194,97.4969
3071.0835,97.4832
3072.0479,97.4744
3073.0120,97.4678
3073.9763,97.4616
3074.9404,97.4555
3075.9048,97.4504
3076.8689,97.4466
3077.8333,97.4433
3078.7974,97.4384
3079.7617,97.4301
3080.7258,97.418
3081.6902,97.4033
3082.6543,97.3877
3083.6187,97.3724
3084.5828,97.3578
3085.5471,97.3437
3086.5112,97.3298
3087.4756,97.3163
3088.4397,97.3033
3089.4041,97.2917
3090.3682,97.2825
3091.3325,97.2766
3092.2966,97.2746
3093.2610,97.2757
3094.2251,97.2775
3095.1895,97.2768
3096.1536,97.2711
3097.1179,97.2603
3098.0820,97.246
3099.0464,97.2307
3100.0105,97.2157
3100.9749,97.2009
3101.9390,97.1853
3102.9033,97.1692
3103.8674,97.1541
3104.8318,97.1416
3105.7959,97.1318
3106.7603,97.1225
3107.7244,97.11
3108.6887,97.0919
3109.6528,97.0691
3110.6172,97.0453
3111.5813,97.0252
3112.5457,97.0117
3113.5098,97.0042
3114.4741,96.9997
3115.4382,96.995
3116.4026,96.9885
3117.3667,96.9802
3118.3311,96.9711
3119.2952,96.9613
3120.2595,96.9498
3121.2236,96.9351
3122.1880,96.9162
3123.1521,96.8935
3124.1165,96.8682
3125.0806,96.8419
3126.0449,96.8159
3127.0090,96.792
3127.9734,96.7717
3128.9375,96.7565
3129.9019,96.7468
3130.8660,96.7407
3131.8303,96.7347
3132.7944,96.7246
3133.7588,96.7083
3134.7229,96.6861
3135.6873,96.6616
3136.6514,96.6386
3137.6157,96.6198
3138.5798,96.6049
3139.5442,96.5917
3140.5083,96.5765
3141.4727,96.5572
3142.4368,96.5341
3143.4011,96.5098
3144.3652,96.4884
3145.3296,96.4733
3146.2937,96.4657
3147.2581,96.4636
3148.2222,96.4632
3149.1865,96.4599
3150.1506,96.4504
3151.1150,96.4339
3152.0791,96.4111
3153.0435,96.384
3154.0076,96.355
3154.9719,96.3263
3155.9360,96.2996
3156.9004,96.2754
3157.8645,96.2529
3158.8289,96.23
3159.7930,96.2057
3160.7573,96.1814
3161.7214,96.1613
3162.6858,96.151
3163.6499,96.1528
3164.6143,96.1634
3165.5784,96.1737
3166.5427,96.1728
3167.5068,96.154
3168.4712,96.1185
3169.4353,96.0068
3170.3997,95.9658
3171.3638,95.9364
3172.3281,95.9205
3173.2922,95.9143
3174.2566,95.9112
3175.2207,95.9056
3176.1851,95.8947
3177.1492,95.8788
3178.1135,95.8599
3179.0776,95.8408
3180.0420,95.8239
3181.0061,95.8098
3181.9705,95.7976
3182.9346,95.7847
3183.8989,95.7684
3184.8630,95.7481
3185.8274,95.7258
3186.7915,95.7058
3187.7559,95.6919
3188.7200,95.6846
3189.6843,95.68
3190.6484,95.6713
3191.6128,95.6527
3192.5769,95.6224
3193.5413,95.5838
3194.5054,95.5434
3195.4697,95.5078
3196.4338,95.4803
3197.3982,95.4609
3198.3623,95.448
3199.3267,95.4399
3200.2908,95.4355
3201.2551,95.4333
3202.2192,95.4296
3203.1836,95.4195
3204.1477,95.3988
3205.1121,95.3674
3206.0762,95.3302
3207.0405,95.2952
3208.0046,95.2697
3208.9690,95.2563
3209.9331,95.2515
3210.8975,95.2481
3211.8616,95.2393
3212.8259,95.2222
3213.7900,95.1988
3214.7544,95.1743
3215.7185,95.1537
3216.6829,95.1398
3217.6470,95.1313
3218.6113,95.1243
3219.5754,95.1134
3220.5398,95.0946
3221.5039,95.0662
3222.4683,95.0304
3223.4324,94.9921
3224.3967,94.9581
3225.3608,94.9342
3226.3252,94.9237
3227.2893,94.9252
3228.2537,94.9331
3229.2178,94.9391
3230.1821,94.936
3231.1462,94.9205
3232.1106,94.8944
3233.0747,94.8632
3234.0391,94.833
3235.0032,94.8075
3235.9675,94.7869
3236.9316,94.7693
3237.8960,94.7521
3238.8601,94.7343
3239.8245,94.7158
3240.7886,94.6971
3241.7529,94.6789
3242.7170,94.6618
3243.6814,94.6471
3244.6455,94.6364
3245.6099,94.6298
3246.5740,94.6248
3247.5383,94.6169
3248.5024,94.6015
3249.4668,94.5771
3250.4309,94.5471
3251.3953,94.5178
3252.3594,94.4947
3253.3237,94.4794
3254.2878,94.4685
3255.2522,94.4561
3256.2163,94.438
3257.1807,94.4136
3258.1448,94.3859
3259.1091,94.3592
3260.0732,94.3365
3261.0376,94.3184
3262.0017,94.3038
3262.9661,94.2904
3263.9302,94.276
3264.8945,94.2593
3265.8586,94.2403
3266.8230,94.2202
3267.7871,94.2017
3268.7515,94.1876
3269.7156,94.1792
3270.6799,94.1754
3271.6440,94.1724
3272.6084,94.1655
3273.5725,94.1516
3274.5369,94.1305
3275.5010,94.1055
3276.4653,94.0817
3277.4294,94.0639
3278.3938,94.0545
3279.3579,94.0534
3280.3223,94.0584
3281.2864,94.0661
3282.2507,94.0733
3283.2148,94.0768
3284.1792,94.0744
3285.1433,94.0646
3286.1077,94.0476
3287.0718,94.0248
3288.0361,94.0001
3289.0002,93.978
3289.9646,93.9622
3290.9287,93.9538
3291.8931,93.9506
3292.8572,93.948
3293.8215,93.9417
3294.7856,93.9304
3295.7500,93.9166
3296.7141,93.9049
3297.6785,93.8998
3298.6426,93.9029
3299.6069,93.912
3300.5710,93.923
3301.5354,93.9315
3302.4995,93.9355
3303.4639,93.9356
3304.4280,93.9334
3305.3923,93.9304
3306.3564,93.9263
3307.3208,93.9202
3308.2849,93.9115
3309.2493,93.9014
3310.2134,93.8923
3311.1777,93.8865
3312.1418,93.8836
3313.1062,93.8806
3314.0703,93.8735
3315.0347,93.8601
3315.9988,93.8421
3316.9631,93.825
3317.9272,93.8153
3318.8916,93.8167
3319.8557,93.8279
3320.8201,93.843
3321.7842,93.8543
3322.7485,93.8566
3323.7126,93.849
3324.6770,93.8352
3325.6411,93.8207
3326.6055,93.8096
3327.5696,93.8022
3328.5339,93.7962
3329.4980,93.7887
3330.4624,93.7781
3331.4265,93.766
3332.3909,93.7557
3333.3550,93.7513
3334.3193,93.7559
3335.2834,93.7706
3336.2478,93.7949
3337.2119,93.8263
3338.1763,93.861
3339.1404,93.8938
3340.1047,93.919
3341.0688,93.9325
3342.0332,93.933
3342.9973,93.9231
3343.9617,93.9084
3344.9258,93.8959
3345.8901,93.8911
3346.8542,93.8971
3347.8186,93.913
3348.7827,93.9346
3349.7471,93.9551
3350.7112,93.9676
3351.6755,93.9675
3352.6396,93.9552
3353.6040,93.9365
3354.5681,93.9209
3355.5325,93.9174
3356.4966,93.9298
3357.4609,93.9549
3358.4250,93.9838
3359.3894,94.0068
3360.3535,94.0177
3361.3179,94.017
3362.2820,94.0103
3363.2463,94.0059
3364.2104,94.0103
3365.1748,94.0265
3366.1389,94.0534
3367.1033,94.0873
3368.0674,94.1231
3369.0317,94.1564
3369.9958,94.1839
3370.9602,94.2048
3371.9243,94.2203
3372.8887,94.2335
3373.8528,94.247
3374.8171,94.2613
3375.7813,94.2742
3376.7456,94.2823
3377.7097,94.2835
3378.6741,94.2793
3379.6382,94.2745
3380.6025,94.2747
3381.5667,94.2835
3382.5310,94.2997
3383.4951,94.3181
3384.4595,94.3322
3385.4236,94.3377
3386.3879,94.3346
3387.3521,94.3268
3388.3164,94.3208
3389.2805,94.3221
3390.2449,94.3339
3391.2090,94.3552
3392.1733,94.3812
3393.1375,94.4062
3394.1018,94.4255
3395.0659,94.4379
3396.0303,94.445
3396.9944,94.4498
3397.9587,94.4547
3398.9229,94.4609
3399.8872,94.4681
3400.8513,94.4769
3401.8157,94.489
3402.7798,94.507
3403.7441,94.5322
3404.7083,94.5623
3405.6726,94.5921
3406.6367,94.6151
3407.6011,94.6271
3408.5652,94.6294
3409.5295,94.6279
3410.4937,94.6304
3411.4580,94.6416
3412.4221,94.6606
3413.3865,94.681
3414.3506,94.6954
3415.3149,94.7004
3416.2791,94.6998
3417.2434,94.7025
3418.2075,94.7176
3419.1719,94.7484
3420.1360,94.7898
3421.1003,94.831
3422.0645,94.8617
3423.0288,94.8779
3423.9929,94.8833
3424.9573,94.8865
3425.9214,94.896
3426.8857,94.916
3427.8499,94.944
3428.8142,94.9724
3429.7783,94.9927
3430.7427,95.0011
3431.7068,95.0004
3432.6711,94.9988
3433.6353,95.0046
3434.5996,95.0218
3435.5637,95.0485
3436.5281,95.0788
3437.4922,95.1065
3438.4565,95.1273
3439.4207,95.1395
3440.3850,95.1428
3441.3491,95.1381
3442.3135,95.1291
3443.2776,95.1231
3444.2419,95.1294
3445.2061,95.1548
3446.1704,95.1983
3447.1345,95.2501
3448.0989,95.2971
3449.0630,95.331
3450.0273,95.3515
3450.9915,95.3653
3451.9558,95.3811
3452.9199,95.4043
3453.8843,95.4343
3454.8484,95.466
3455.8127,95.4933
3456.7769,95.5132
3457.7412,95.5271
3458.7053,95.5391
3459.6697,95.5533
3460.6338,95.5722
3461.5981,95.5961
3462.5623,95.6242
3463.5266,95.6557
3464.4907,95.6903
3465.4551,95.7276
3466.4192,95.7661
3467.3835,95.8028
3468.3477,95.8335
3469.3120,95.855
3470.2761,95.867
3471.2405,95.8733
3472.2046,95.8808
3473.1689,95.8951
3474.1331,95.9181
3475.0974,95.9459
3476.0615,95.9727
3477.0259,95.9948
3477.9900,96.0139
3478.9543,96.0361
3479.9185,96.0671
3480.8828,96.1068
3481.8469,96.1489
3482.8113,96.1845
3483.7754,96.2084
3484.7397,96.2216
3485.7039,96.23
3486.6682,96.2409
3487.6323,96.2586
3488.5967,96.2824
3489.5608,96.3092
3490.5251,96.3356
3491.4893,96.3615
3492.4536,96.39
3493.4177,96.4247
3494.3821,96.4663
3495.3462,96.5101
3496.3105,96.5482
3497.2747,96.5739
3498.2390,96.5865
3499.2031,96.5926
3500.1675,96.603
3501.1316,96.6254
3502.0959,96.6575
3503.0601,96.6887
3504.0244,96.7085
3504.9885,96.7152
3505.9529,96.7158
3506.9170,96.7223
3507.8813,96.7455
3508.8455,96.7882
3509.8098,96.8415
3510.7739,96.8909
3511.7383,96.9253
3512.7024,96.9428
3513.6667,96.9483
3514.6309,96.9491
3515.5952,96.9503
3516.5593,96.9541
3517.5237,96.9606
3518.4878,96.9714
3519.4521,96.9897
3520.4163,97.0185
3521.3806,97.0572
3522.3447,97.1003
3523.3091,97.1404
3524.2732,97.1743
3525.2375,97.2056
3526.2017,97.24
3527.1660,97.2793
3528.1301,97.3172
3529.0945,97.3437
3530.0586,97.3526
3531.0229,97.3455
3531.9871,97.3313
3532.9514,97.3228
3533.9155,97.3321
3534.8799,97.3644
3535.8440,97.415
3536.8083,97.4707
3537.7725,97.517
3538.7368,97.5438
3539.7009,97.5489
3540.6653,97.5389
3541.6294,97.5295
3542.5938,97.5408
3543.5579,97.5853
3544.5222,97.6553
3545.4863,97.7242
3546.4507,97.7657
3547.4148,97.7716
3548.3792,97.7516
3549.3433,97.7262
3550.3076,97.7188
3551.2717,97.7469
3552.2361,97.811
3553.2002,97.893
3554.1646,97.9673
3555.1287,98.0161
3556.0930,98.0368
3557.0571,98.04
3558.0215,98.0398
3558.9856,98.0416
3559.9500,98.0355
3560.9141,98.0048
3561.8784,97.9426
3562.8425,97.8693
3563.8069,97.8359
3564.7710,97.9003
3565.7354,98.0678
3566.6995,98.2555
3567.6638,98.3655
3568.6279,98.3801
3569.5923,98.3369
3570.5564,98.2677
3571.5208,98.192
3572.4849,98.1325
3573.4492,98.1133
3574.4133,98.147
3575.3777,98.2259
3576.3418,98.3278
3577.3062,98.4282
3578.2703,98.5077
3579.2346,98.5514
3580.1987,98.5468
3581.1631,98.4861
3582.1272,98.3745
3583.0916,98.2403
3584.0557,98.1402
3585.0200,98.1425
3585.9841,98.274
3586.9485,98.4707
3587.9126,98.6238
3588.8770,98.6828
3589.8411,98.6668
3590.8054,98.6119
3591.7695,98.5518
3592.7339,98.5185
3593.6980,98.5296
3594.6624,98.5767
3595.6265,98.6365
3596.5908,98.6958
3597.5549,98.7587
3598.5193,98.8326
3599.4834,98.9103
3600.4478,98.9674
3601.4119,98.9778
3602.3762,98.9333
3603.3403,98.8484
3604.3047,98.7552
3605.2688,98.6924
3606.2332,98.6849
3607.1973,98.7243
3608.1616,98.7738
3609.1257,98.8047
3610.0901,98.8184
3611.0542,98.831
3612.0186,98.8464
3612.9829,98.8496
3613.9470,98.8222
3614.9114,98.7657
3615.8755,98.7135
3616.8398,98.7204
3617.8040,98.8254
3618.7683,99.0091
3619.7324,99.1963
3620.6968,99.3161
3621.6609,99.3362
3622.6252,99.2468
3623.5894,99.0522
3624.5537,98.795
3625.5178,98.5803
3626.4822,98.5548
3627.4463,98.7932
3628.4106,99.1597
3629.3748,99.4166
3630.3391,99.4926
3631.3032,99.4631
3632.2676,99.3961
3633.2317,99.3242
3634.1960,99.2699
3635.1602,99.2495
3636.1245,99.2665
3637.0886,99.3114
3638.0530,99.3703
3639.0171,99.4311
3639.9814,99.4811
3640.9456,99.5012
3641.9099,99.4656
3642.8740,99.3537
3643.8384,99.1726
3644.8025,98.9861
3645.7668,98.9372
3646.7310,99.2132
3647.6953,99.8432
3648.6594,100.444
3649.6238,100.574
3650.5879,100.326
3651.5522,99.9956
3652.5164,99.7056
3653.4807,99.4768
3654.4448,99.3359
3655.4092,99.3184
3656.3733,99.4228
3657.3376,99.597
3658.3018,99.7758
3659.2661,99.9192
3660.2302,100.017
3661.1946,100.073
3662.1587,100.085
3663.1230,100.037
3664.0872,99.9151
3665.0515,99.7287
3666.0156,99.5367
3666.9800,99.4399
3667.9441,99.5179
3668.9084,99.725
3669.8726,99.8843
3670.8369,99.8607
3671.8010,99.6839
3672.7654,99.4953
3673.7295,99.4526
3674.6938,99.6242
3675.6580,99.9058
3676.6223,100.121
3677.5864,100.207
3678.5508,100.199
3679.5149,100.14
3680.4792,100.048
3681.4434,99.9323
3682.4077,99.7864
3683.3718,99.5967
3684.3362,99.3643
3685.3003,99.1359
3686.2646,99.0226
3687.2288,99.1568
3688.1931,99.5585
3689.1572,100.042
3690.1216,100.355
3691.0857,100.431
3692.0500,100.349
3693.0142,100.193
3693.9785,100.004
3694.9426,99.8018
3695.9070,99.6006
3696.8711,99.4195
3697.8354,99.2881
3698.7996,99.2462
3699.7639,99.3259
3700.7280,99.5168
3701.6924,99.7474
3702.6565,99.9185
3703.6208,99.9623
3704.5850,99.864
3705.5493,99.6505
3706.5134,99.3823
3707.4778,99.1573
3708.4419,99.0971
3709.4063,99.2788
3710.3704,99.6271
3711.3347,99.9347
3712.2988,100.07
3713.2632,100.061
3714.2273,99.9732
3715.1917,99.8433
3716.1558,99.6944
3717.1201,99.5618
3718.0842,99.49
3719.0486,99.512
3720.0127,99.632
3720.9771,99.827
3721.9412,100.065
3722.9055,100.316
3723.8696,100.545
3724.8340,100.704
3725.7981,100.751
3726.7625,100.668
3727.7266,100.465
3728.6909,100.176
3729.6550,99.8574
3730.6194,99.6038
3731.5835,99.5447
3732.5479,99.8092
3733.5120,100.412
3734.4763,101.129
3735.4404,101.606
3736.4048,101.695
3737.3689,101.499
3738.3333,101.144
3739.2974,100.683
3740.2617,100.159
3741.2258,99.6642
3742.1902,99.3456
3743.1543,99.3128
3744.1187,99.5065
3745.0828,99.7244
3746.0471,99.8226
3747.0112,99.8065
3747.9756,99.7763
3748.9397,99.845
3749.9041,100.019
3750.8682,100.143
3751.8325,100.092
3752.7966,99.918
3753.7610,99.707
3754.7251,99.4959
3755.6895,99.3156
3756.6536,99.216
3757.6179,99.2308
3758.5820,99.3327
3759.5464,99.4446
3760.5105,99.5016
3761.4749,99.485
3762.4390,99.412
3763.4033,99.316
3764.3674,99.2316
3765.3318,99.183
3766.2959,99.1802
3767.2603,99.2223
3768.2244,99.3017
3769.1887,99.401
3770.1528,99.491
3771.1172,99.5385
3772.0813,99.5197
3773.0457,99.4276
3774.0098,99.2756
3774.9741,99.1036
3775.9382,98.9752
3776.9026,98.9538
3777.8667,99.0572
3778.8311,99.2341
3779.7952,99.399
3780.7595,99.4955
3781.7236,99.5188
3782.6880,99.495
3783.6521,99.4546
3784.6165,99.4178
3785.5806,99.3911
3786.5449,99.3722
3787.5090,99.3556
3788.4734,99.3355
3789.4375,99.3058
3790.4019,99.2643
3791.3660,99.2188
3792.3303,99.1893
3793.2944,99.1979
3794.2588,99.2504
3795.2229,99.323
3796.1873,99.3746
3797.1514,99.3809
3798.1157,99.3584
3799.0798,99.3485
3800.0442,99.3671
3801.0083,99.3706
3801.9727,99.3005
3802.9368,99.1537
3803.9011,98.9852
3804.8652,98.871
3805.8296,98.8754
3806.7937,99.0122
3807.7581,99.2209
3808.7222,99.4032
3809.6865,99.4829
3810.6506,99.4352
3811.6150,99.292
3812.5791,99.1364
3813.5435,99.0658
3814.5076,99.1225
3815.4719,99.2465
3816.4360,99.3322
3817.4004,99.3323
3818.3645,99.2849
3819.3289,99.2547
3820.2930,99.2657
3821.2573,99.2906
3822.2214,99.3022
3823.1858,99.3007
3824.1499,99.2956
3825.1143,99.2948
3826.0784,99.3076
3827.0427,99.3416
3828.0068,99.3945
3828.9712,99.452
3829.9353,99.4923
3830.8997,99.4932
3831.8638,99.4372
3832.8281,99.3191
3833.7922,99.1555
3834.7566,98.99
3835.7207,98.8831
3836.6851,98.8818
3837.6492,98.984
3838.6135,99.1393
3839.5776,99.2961
3840.5420,99.4362
3841.5061,99.5642
3842.4705,99.6826
3843.4346,99.7801
3844.3989,99.8315
3845.3630,99.8039
3846.3274,99.6645
3847.2915,99.3913
3848.2559,98.9933
3849.2200,98.5423
3850.1843,98.2067
3851.1484,98.2351
3852.1128,98.7603
3853.0769,99.485
3854.0413,99.923
3855.0054,100.01
3855.9697,99.9291
3856.9338,99.767
3857.8982,99.5387
3858.8623,99.2731
3859.8267,99.0405
3860.7908,98.9303
3861.7551,98.9959
3862.7192,99.1959
3863.6836,99.4043
3864.6477,99.5052
3865.6121,99.4699
3866.5762,99.3485
3867.5405,99.2239
3868.5046,99.171
3869.4690,99.2232
3870.4331,99.3537
3871.3975,99.4957
3872.3616,99.5884
3873.3259,99.6032
3874.2900,99.5389
3875.2544,99.4123
3876.2185,99.2578
3877.1829,99.1276
3878.1470,99.0784
3879.1113,99.1406
3880.0754,99.2894
3881.0398,99.4535
3882.0039,99.5641
3882.9683,99.5951
3883.9324,99.5576
3884.8967,99.4735
3885.8608,99.3589
3886.8252,99.228
3887.7893,99.1042
3888.7537,99.0307
3889.7178,99.0631
3890.6821,99.2274
3891.6462,99.4702
3892.6106,99.6773
3893.5747,99.7571
3894.5391,99.6875
3895.5032,99.5025
3896.4675,99.2702
3897.4316,99.0722
3898.3960,98.9725
3899.3601,98.9888
3900.3245,99.0942
3901.2886,99.2488
3902.2529,99.42
3903.2170,99.5772
3904.1814,99.6911
3905.1455,99.7471
3906.1099,99.7482
3907.0740,99.7056
3908.0383,99.6337
3909.0024,99.5494
3909.9668,99.4681
3910.9309,99.3979
3911.8953,99.3391
3912.8594,99.2921
3913.8237,99.267
3914.7878,99.2828
3915.7522,99.3526
3916.7163,99.4632
3917.6807,99.5734
3918.6448,99.6405
3919.6091,99.6464
3920.5732,99.6023
3921.5376,99.5374
3922.5017,99.4847
3923.4661,99.4639
3924.4302,99.4706
3925.3945,99.4813
3926.3586,99.4732
3927.3230,99.4409
3928.2871,99.4015
3929.2515,99.387
3930.2156,99.4247
3931.1799,99.5146
3932.1440,99.6249
3933.1084,99.714
3934.0725,99.7539
3935.0369,99.7364
3936.0010,99.6684
3936.9653,99.5675
3937.9294,99.4594
3938.8938,99.3747
3939.8579,99.3408
3940.8223,99.3691
3941.7864,99.4449
3942.7507,99.5318
3943.7148,99.5926
3944.6792,99.6103
3945.6433,99.5949
3946.6077,99.5737
3947.5718,99.5737
3948.5361,99.6037
3949.5002,99.6481
3950.4646,99.6795
3951.4287,99.6779
3952.3931,99.6423
3953.3572,99.5877
3954.3215,99.5351
3955.2856,99.502
3956.2500,99.4957
3957.2141,99.5145
3958.1785,99.5529
3959.1426,99.6048
3960.1069,99.6641
3961.0710,99.7213
3962.0354,99.764
3962.9995,99.7812
3963.9639,99.7683
3964.9280,99.7306
3965.8923,99.6797
3966.8564,99.6295
3967.8208,99.5915
3968.7849,99.5713
3969.7493,99.5693
3970.7134,99.583
3971.6777,99.6087
3972.6418,99.6423
3973.6062,99.679
3974.5703,99.7125
3975.5347,99.7365
3976.4988,99.7465
3977.4631,99.7413
3978.4272,99.7235
3979.3916,99.6989
3980.3557,99.6739
3981.3201,99.6541
3982.2842,99.642
3983.2485,99.6363
3984.2126,99.6343
3985.1770,99.6339
3986.1411,99.6361
3987.1055,99.644
3988.0696,99.6605
3989.0339,99.6848
3989.9980,99.7122
3990.9624,99.7357
3991.9265,99.7514
3992.8909,99.7599
3993.8550,99.7659
3994.8193,99.7735
3995.7834,99.7826
3996.7478,99.7891
3997.7119,99.7875
3998.6763,99.776
3999.6404,99.758
4000.6047,99.8916

##### Extended Information
[Comments]
Sample name
Comment
User
Division
Company,HANKYONG

[Detailed Information]
Creation date,4/24/2024 2:49 PM

Data array type,Linear data array
Horizontal axis,Wavenumber [cm-1]
Vertical axis,%T
Start,649.893 cm-1
End,4000.6 cm-1
Data interval,0.964233 cm-1
Data points,3476    

[Measurement Information]
Model Name,FT/IR-4700typeA
Serial Number,D056761788

Accessory,ATR PRO ONE
Accessory S/N,C174761809
Incident angle,45 deg

Measurement Date,4/24/2024 2:49 PM

Light Source,Standard
Detector,TGS
Accumulation,32
Resolution,4 cm-1
Zero Filling,On
Apodization,Cosine
Gain,Auto (4)
Aperture,Auto (7.1 mm)
Scanning Speed,Auto (2 mm/sec)
Filter,Auto (30000 Hz)

