TITLE,
DATA TYPE,INFRARED SPECTRUM
ORIGIN,JASCO
OWNER,
DATE,24/04/24
TIME,10:31:59
SPECTROMETER/DATA SYSTEM,
LOCALE,1033
RESOLUTION,
DELTAX,0.964233
XUNITS,1/CM
YUNITS,TRANSMITTANCE
FIRSTX,  649.8934
LASTX, 4000.6047
NPOINTS,    3476
FIRSTY,    98.84679
MAXY,   101.27065
MINY,    51.73676
XYDATA
649.8934,98.8468
650.8576,98.8948
651.8218,98.9803
652.7861,99.0198
653.7503,99.0329
654.7145,99.0141
655.6788,98.965
656.6430,98.8936
657.6072,98.8082
658.5715,98.7187
659.5357,98.6423
660.4999,98.6014
661.4642,98.6088
662.4284,98.6516
663.3926,98.6886
664.3569,98.6597
665.3211,98.4921
666.2853,98.1139
667.2496,97.5241
668.2138,96.9219
669.1780,96.6345
670.1423,96.7417
671.1065,97.0471
672.0707,97.3645
673.0350,97.6128
673.9992,97.7735
674.9634,97.8531
675.9277,97.8719
676.8919,97.8621
677.8561,97.8628
678.8204,97.9119
679.7846,98.0356
680.7488,98.2394
681.7131,98.5025
682.6773,98.7854
683.6415,99.0503
684.6058,99.2797
685.5700,99.4787
686.5342,99.6603
687.4985,99.8269
688.4627,99.9619
689.4269,100.038
690.3912,100.038
691.3554,99.9783
692.3196,99.9252
693.2839,99.9762
694.2481,100.182
695.2123,100.494
696.1766,100.812
697.1408,101.057
698.1050,101.195
699.0693,101.228
700.0335,101.185
700.9977,101.105
701.9620,101.024
702.9262,100.969
703.8904,100.952
704.8547,100.976
705.8189,101.032
706.7831,101.103
707.7474,101.171
708.7116,101.225
709.6758,101.258
710.6401,101.271
711.6043,101.261
712.5685,101.184
713.5328,101.034
714.4970,100.831
715.4612,100.751
716.4255,100.449
717.3897,100.151
718.3539,99.9049
719.3182,99.7545
720.2824,99.7202
721.2466,99.7853
722.2109,99.9007
723.1751,100.007
724.1393,100.061
725.1036,100.046
726.0678,99.9754
727.0320,99.8839
727.9963,99.8083
728.9605,99.7732
729.9247,99.7829
730.8890,99.823
731.8532,99.8695
732.8174,99.8985
733.7817,99.892
734.7459,99.8386
735.7101,99.7322
736.6744,99.5702
737.6386,99.3536
738.6028,99.0881
739.5671,98.7853
740.5313,98.4613
741.4955,98.1348
742.4598,97.8225
743.4240,97.537
744.3882,97.2841
745.3525,97.0642
746.3167,96.8737
747.2809,96.7089
748.2452,96.5676
749.2094,96.4487
750.1736,96.3499
751.1379,96.2645
752.1021,96.1821
753.0663,96.0926
754.0306,95.9914
754.9948,95.8839
755.9590,95.7825
756.9233,95.6992
757.8875,95.6372
758.8517,95.5874
759.8160,95.5338
760.7802,95.4639
761.7444,95.3774
762.7087,95.2883
763.6729,95.2176
764.6371,95.1827
765.6014,95.1886
766.5656,95.2271
767.5298,95.283
768.4941,95.3423
769.4583,95.3968
770.4225,95.4444
771.3868,95.484
772.3510,95.5117
773.3152,95.5189
774.2795,95.4959
775.2437,95.4367
776.2079,95.3441
777.1722,95.2299
778.1364,95.1109
779.1006,95.0019
780.0649,94.9088
781.0291,94.8262
781.9933,94.741
782.9576,94.6404
783.9218,94.5202
784.8860,94.3879
785.8503,94.2595
786.8145,94.1506
787.7787,94.0679
788.7430,94.0063
789.7072,93.9523
790.6714,93.8921
791.6357,93.8182
792.5999,93.7304
793.5641,93.6325
794.5284,93.5259
795.4926,93.4073
796.4568,93.2708
797.4211,93.1132
798.3853,92.9372
799.3495,92.7513
800.3138,92.564
801.2780,92.3797
802.2422,92.196
803.2065,92.0069
804.1707,91.8063
805.1349,91.5917
806.0992,91.3641
807.0634,91.1267
808.0276,90.8822
808.9919,90.6332
809.9561,90.3822
810.9203,90.1326
811.8846,89.8883
812.8488,89.6534
813.8130,89.4321
814.7773,89.2287
815.7415,89.0465
816.7057,88.8863
817.6700,88.7455
818.6342,88.6176
819.5984,88.4958
820.5627,88.3764
821.5269,88.2624
822.4911,88.1622
823.4554,88.0866
824.4196,88.0435
825.3839,88.035
826.3481,88.0559
827.3123,88.096
828.2766,88.1411
829.2408,88.1756
830.2050,88.184
831.1693,88.1534
832.1335,88.0762
833.0977,87.9511
834.0620,87.7833
835.0262,87.5813
835.9904,87.3544
836.9547,87.1096
837.9189,86.8522
838.8831,86.5858
839.8474,86.3142
840.8116,86.0412
841.7758,85.7699
842.7401,85.5024
843.7043,85.2395
844.6685,84.9822
845.6328,84.7326
846.5970,84.4952
847.5612,84.2758
848.5255,84.0797
849.4897,83.9089
850.4539,83.7613
851.4182,83.6306
852.3824,83.5102
853.3466,83.3953
854.3109,83.2854
855.2751,83.1832
856.2393,83.092
857.2036,83.0134
858.1678,82.9466
859.1320,82.8894
860.0963,82.8407
861.0605,82.8027
862.0247,82.7817
862.9890,82.7863
863.9532,82.8262
864.9174,82.9084
865.8817,83.0356
866.8459,83.2046
867.8101,83.4077
868.7744,83.6361
869.7386,83.8822
870.7028,84.1406
871.6671,84.404
872.6313,84.6587
873.5955,84.8827
874.5598,85.0519
875.5240,85.1512
876.4882,85.184
877.4525,85.1741
878.4167,85.1562
879.3809,85.1604
880.3452,85.2008
881.3094,85.2737
882.2736,85.3651
883.2379,85.4596
884.2021,85.5451
885.1663,85.6094
886.1306,85.6382
887.0948,85.6177
888.0590,85.5444
889.0233,85.4347
889.9875,85.3249
890.9517,85.2584
891.9160,85.2665
892.8802,85.3532
893.8444,85.4941
894.8087,85.6506
895.7729,85.7884
896.7371,85.8925
897.7014,85.9686
898.6656,86.035
899.6298,86.1103
900.5941,86.2042
901.5583,86.3158
902.5225,86.4365
903.4868,86.5569
904.4510,86.6703
905.4152,86.7746
906.3795,86.8709
907.3437,86.9606
908.3079,87.0429
909.2722,87.1154
910.2364,87.1751
911.2006,87.2216
912.1649,87.2589
913.1291,87.2946
914.0933,87.3375
915.0576,87.3944
916.0218,87.4684
916.9860,87.5598
917.9503,87.6677
918.9145,87.7928
919.8787,87.938
920.8430,88.107
921.8072,88.3026
922.7714,88.5237
923.7357,88.7652
924.6999,89.0195
925.6641,89.28
926.6284,89.5443
927.5926,89.8166
928.5568,90.1074
929.5211,90.4322
930.4853,90.8079
931.4495,91.2514
932.4138,91.7769
933.3780,92.3938
934.3422,93.1037
935.3065,93.8959
936.2707,94.7457
937.2349,95.6153
938.1992,96.4599
939.1634,97.237
940.1276,97.916
941.0919,98.4831
942.0561,98.9404
943.0203,99.3009
943.9846,99.5796
944.9488,99.7885
945.9130,99.9342
946.8773,100.02
947.8415,100.047
948.8057,100.023
949.7700,99.9568
950.7342,99.8601
951.6984,99.7431
952.6627,99.6111
953.6269,99.4626
954.5911,99.3155
955.5554,99.2191
956.5196,99.0837
957.4838,98.9074
958.4481,98.6931
959.4123,98.4456
960.3765,98.1691
961.3408,97.866
962.3050,97.5375
963.2692,97.187
964.2335,96.8215
965.1977,96.4519
966.1619,96.09
967.1262,95.7447
968.0904,95.4198
969.0546,95.1148
970.0189,94.8271
970.9831,94.5555
971.9473,94.3008
972.9116,94.0647
973.8758,93.8473
974.8400,93.645
975.8043,93.4515
976.7685,93.2588
977.7327,93.0596
978.6970,92.8476
979.6612,92.6174
980.6254,92.3628
981.5897,92.0771
982.5539,91.754
983.5181,91.3896
984.4824,90.9847
985.4466,90.5463
986.4108,90.0871
987.3751,89.6247
988.3393,89.1795
989.3035,88.7717
990.2678,88.4177
991.2320,88.1266
992.1962,87.8971
993.1605,87.7175
994.1247,87.5688
995.0889,87.4305
996.0532,87.2866
997.0174,87.1281
997.9816,86.9516
998.9459,86.7538
999.9101,86.5273
1000.8743,86.2594
1001.8386,85.9352
1002.8028,85.5425
1003.7670,85.0741
1004.7313,84.5272
1005.6955,83.9007
1006.6597,83.1929
1007.6240,82.4012
1008.5882,81.5241
1009.5524,80.5632
1010.5167,79.5241
1011.4809,78.4167
1012.4451,77.2532
1013.4094,76.0459
1014.3736,74.804
1015.3378,73.5328
1016.3021,72.2355
1017.2663,70.9191
1018.2305,69.5969
1019.1948,68.2841
1020.1590,66.9852
1021.1232,65.6828
1022.0875,64.3392
1023.0517,62.9179
1024.0160,61.4173
1024.9802,59.8933
1025.9445,58.4526
1026.9087,57.2116
1027.8729,56.2423
1028.8372,55.5363
1029.8014,55.0101
1030.7656,54.5478
1031.7299,54.0577
1032.6941,53.5101
1033.6583,52.9402
1034.6226,52.4208
1035.5868,52.0245
1036.5510,51.7948
1037.5153,51.7368
1038.4795,51.8226
1039.4437,52.0068
1040.4080,52.2415
1041.3722,52.4891
1042.3364,52.7296
1043.3007,52.962
1044.2649,53.198
1045.2291,53.4531
1046.1934,53.7392
1047.1576,54.0623
1048.1218,54.4259
1049.0861,54.8345
1050.0503,55.2921
1051.0145,55.7961
1051.9788,56.3318
1052.9430,56.8765
1053.9072,57.4149
1054.8715,57.958
1055.8357,58.5494
1056.7999,59.2477
1057.7642,60.0852
1058.7284,61.0253
1059.6926,61.9477
1060.6569,62.682
1061.6211,63.0839
1062.5853,63.1143
1063.5496,62.8767
1064.5138,62.581
1065.4780,62.449
1066.4423,62.6074
1067.4065,63.0294
1068.3707,63.5558
1069.3350,63.9806
1070.2992,64.1505
1071.2634,64.0233
1072.2277,63.6632
1073.1919,63.1872
1074.1561,62.7034
1075.1204,62.2743
1076.0846,61.9169
1077.0488,61.6247
1078.0131,61.3899
1078.9773,61.2126
1079.9415,61.0964
1080.9058,61.0398
1081.8700,61.0323
1082.8342,61.0565
1083.7985,61.095
1084.7627,61.1394
1085.7269,61.1969
1086.6912,61.2908
1087.6554,61.4545
1088.6196,61.7163
1089.5839,62.0819
1090.5481,62.5247
1091.5123,62.9899
1092.4766,63.4139
1093.4408,63.7483
1094.4050,63.977
1095.3693,64.1174
1096.3335,64.2068
1097.2977,64.2841
1098.2620,64.3747
1099.2262,64.4866
1100.1904,64.6151
1101.1547,64.7504
1102.1189,64.8857
1103.0831,65.0203
1104.0474,65.1612
1105.0116,65.3213
1105.9758,65.5162
1106.9401,65.7618
1107.9043,66.0707
1108.8685,66.4526
1109.8328,66.9151
1110.7970,67.4661
1111.7612,68.1145
1112.7255,68.8684
1113.6897,69.7325
1114.6539,70.7052
1115.6182,71.7794
1116.5824,72.9448
1117.5466,74.1924
1118.5109,75.5163
1119.4751,76.913
1120.4393,78.3774
1121.4036,79.899
1122.3678,81.4603
1123.3320,83.0385
1124.2963,84.6096
1125.2605,86.1535
1126.2247,87.6545
1127.1890,89.1006
1128.1532,90.4805
1129.1174,91.7807
1130.0817,92.9867
1131.0459,94.0853
1132.0101,95.0683
1132.9744,95.9333
1133.9386,96.6832
1134.9028,97.3232
1135.8671,97.8578
1136.8313,98.2904
1137.7955,98.6237
1138.7598,98.8613
1139.7240,99.0085
1140.6882,99.0726
1141.6525,99.0613
1142.6167,98.9837
1143.5809,98.8497
1144.5452,98.672
1145.5094,98.4666
1146.4736,98.2522
1147.4379,98.0488
1148.4021,97.8751
1149.3663,97.7461
1150.3306,97.6724
1151.2948,97.6586
1152.2590,97.7034
1153.2233,97.7991
1154.1875,97.9164
1155.1517,97.9576
1156.1160,97.9959
1157.0802,98.0114
1158.0444,97.9882
1159.0087,97.9163
1159.9729,97.7908
1160.9371,97.6103
1161.9014,97.3743
1162.8656,97.0837
1163.8298,96.7404
1164.7941,96.3499
1165.7583,95.9203
1166.7225,95.4622
1167.6868,94.9855
1168.6510,94.4977
1169.6152,94.0024
1170.5795,93.5004
1171.5437,92.9901
1172.5079,92.4697
1173.4722,91.937
1174.4364,91.3906
1175.4006,90.8297
1176.3649,90.2544
1177.3291,89.6663
1178.2933,89.0676
1179.2576,88.4604
1180.2218,87.8467
1181.1860,87.2288
1182.1503,86.6108
1183.1145,85.9991
1184.0787,85.4022
1185.0430,84.828
1186.0072,84.2812
1186.9714,83.7606
1187.9357,83.2602
1188.8999,82.7717
1189.8641,82.2887
1190.8284,81.8079
1191.7926,81.3295
1192.7568,80.8549
1193.7211,80.3848
1194.6853,79.9187
1195.6495,79.4559
1196.6138,78.9964
1197.5780,78.5413
1198.5422,78.0916
1199.5065,77.6444
1200.4707,77.2054
1201.4349,76.7699
1202.3992,76.3389
1203.3634,75.9165
1204.3276,75.5092
1205.2919,75.1247
1206.2561,74.7687
1207.2203,74.4442
1208.1846,74.1515
1209.1488,73.8898
1210.1130,73.6589
1211.0773,73.4592
1212.0415,73.2914
1213.0057,73.1551
1213.9700,73.0493
1214.9342,72.9729
1215.8984,72.926
1216.8627,72.9093
1217.8269,72.923
1218.7911,72.965
1219.7554,73.0308
1220.7196,73.1144
1221.6838,73.2101
1222.6481,73.3132
1223.6123,73.4193
1224.5765,73.5233
1225.5408,73.62
1226.5050,73.7049
1227.4692,73.7749
1228.4335,73.8287
1229.3977,73.8656
1230.3619,73.8884
1231.3262,73.9065
1232.2904,73.9388
1233.2546,74.0089
1234.2189,74.1336
1235.1831,74.3104
1236.1473,74.5138
1237.1116,74.7095
1238.0758,74.8784
1239.0400,75.0374
1240.0043,75.2364
1240.9685,75.531
1241.9327,75.9435
1242.8970,76.4385
1243.8612,76.9312
1244.8254,77.3261
1245.7897,77.5638
1246.7539,77.6463
1247.7181,77.6288
1248.6824,77.5846
1249.6466,77.5685
1250.6108,77.5972
1251.5751,77.6535
1252.5393,77.7053
1253.5035,77.7257
1254.4678,77.7031
1255.4320,77.6404
1256.3962,77.5485
1257.3605,77.4413
1258.3247,77.3323
1259.2889,77.2339
1260.2532,77.1558
1261.2174,77.1039
1262.1816,77.0788
1263.1459,77.0778
1264.1101,77.0973
1265.0743,77.1345
1266.0386,77.1886
1267.0028,77.2605
1267.9670,77.3519
1268.9313,77.4648
1269.8955,77.601
1270.8597,77.761
1271.8240,77.9442
1272.7882,78.1484
1273.7524,78.3711
1274.7167,78.6101
1275.6809,78.8645
1276.6451,79.1348
1277.6094,79.4218
1278.5736,79.7248
1279.5378,80.0412
1280.5021,80.3655
1281.4663,80.6913
1282.4305,81.0129
1283.3948,81.3275
1284.3590,81.6351
1285.3232,81.9379
1286.2875,82.2378
1287.2517,82.5352
1288.2159,82.8283
1289.1802,83.1142
1290.1444,83.3906
1291.1086,83.6569
1292.0729,83.9151
1293.0371,84.1689
1294.0013,84.4222
1294.9656,84.6781
1295.9298,84.9368
1296.8940,85.1959
1297.8583,85.4499
1298.8225,85.6921
1299.7867,85.9155
1300.7510,86.115
1301.7152,86.2877
1302.6794,86.4336
1303.6437,86.554
1304.6079,86.6505
1305.5721,86.7235
1306.5364,86.7716
1307.5006,86.7933
1308.4648,86.7888
1309.4291,86.7613
1310.3933,86.7167
1311.3575,86.6622
1312.3218,86.6031
1313.2860,86.541
1314.2502,86.4747
1315.2145,86.4025
1316.1787,86.3254
1317.1429,86.2473
1318.1072,86.1734
1319.0714,86.1057
1320.0356,86.0406
1320.9999,85.9708
1321.9641,85.8894
1322.9283,85.7951
1323.8926,85.6934
1324.8568,85.5947
1325.8210,85.5109
1326.7853,85.4517
1327.7495,85.4234
1328.7137,85.4299
1329.6780,85.4739
1330.6422,85.5557
1331.6064,85.6703
1332.5707,85.8049
1333.5349,85.9421
1334.4991,86.0671
1335.4634,86.176
1336.4276,86.2803
1337.3918,86.4039
1338.3561,86.5703
1339.3203,86.7817
1340.2845,87.0107
1341.2488,87.2155
1342.2130,87.3663
1343.1772,87.4547
1344.1415,87.4885
1345.1057,87.4811
1346.0699,87.4463
1347.0342,87.3946
1347.9984,87.3323
1348.9626,87.2604
1349.9269,87.1765
1350.8911,87.0772
1351.8553,86.962
1352.8196,86.8342
1353.7838,86.7007
1354.7480,86.5679
1355.7123,86.4376
1356.6765,86.3058
1357.6407,86.1663
1358.6050,86.0157
1359.5692,85.8587
1360.5334,85.7096
1361.4977,85.5889
1362.4619,85.5085
1363.4261,85.4594
1364.3904,85.4167
1365.3546,85.3567
1366.3188,85.2681
1367.2831,85.1503
1368.2473,85.0078
1369.2115,84.8454
1370.1758,84.6665
1371.1400,84.474
1372.1042,84.275
1373.0685,84.0837
1374.0327,83.9191
1374.9969,83.7919
1375.9612,83.6963
1376.9254,83.6168
1377.8896,83.5453
1378.8539,83.4889
1379.8181,83.463
1380.7823,83.4784
1381.7466,83.5342
1382.7108,83.6245
1383.6750,83.7548
1384.6393,83.9482
1385.6035,84.2272
1386.5677,84.5676
1387.5320,84.8654
1388.4962,84.9811
1389.4604,84.8342
1390.4247,84.4442
1391.3889,83.9065
1392.3531,83.3641
1393.3174,82.9846
1394.2816,82.9078
1395.2458,83.1537
1396.2101,83.5738
1397.1743,83.9334
1398.1385,84.064
1399.1028,83.9402
1400.0670,83.6378
1401.0313,83.2519
1401.9955,82.847
1402.9597,82.4545
1403.9240,82.0931
1404.8882,81.7842
1405.8524,81.5485
1406.8167,81.3909
1407.7809,81.2989
1408.7451,81.2553
1409.7094,81.2496
1410.6736,81.2755
1411.6378,81.3212
1412.6021,81.3647
1413.5663,81.3831
1414.5305,81.3644
1415.4948,81.3115
1416.4590,81.2392
1417.4232,81.1678
1418.3875,81.1096
1419.3517,81.0511
1420.3159,80.9632
1421.2802,80.8317
1422.2444,80.6665
1423.2086,80.4884
1424.1729,80.3161
1425.1371,80.1621
1426.1013,80.0349
1427.0656,79.945
1428.0298,79.9068
1428.9940,79.9316
1429.9583,80.0133
1430.9225,80.1245
1431.8867,80.2331
1432.8510,80.3246
1433.8152,80.407
1434.7794,80.4988
1435.7437,80.6072
1436.7079,80.7032
1437.6721,80.7277
1438.6364,80.6396
1439.6006,80.4424
1440.5648,80.1639
1441.5291,79.83
1442.4933,79.4565
1443.4575,79.0499
1444.4218,78.609
1445.3860,78.1278
1446.3502,77.6048
1447.3145,77.0552
1448.2787,76.5147
1449.2429,76.024
1450.2072,75.6059
1451.1714,75.259
1452.1356,74.9701
1453.0999,74.7263
1454.0641,74.5216
1455.0283,74.3687
1455.9926,74.3165
1456.9568,74.4141
1457.9210,74.5894
1458.8853,74.6939
1459.8495,74.6879
1460.8137,74.632
1461.7780,74.6115
1462.7422,74.7203
1463.7064,75.0537
1464.6707,75.6487
1465.6349,76.4118
1466.5991,77.174
1467.5634,77.837
1468.5276,78.418
1469.4918,79.002
1470.4561,79.7001
1471.4203,80.6196
1472.3845,81.785
1473.3488,83.0285
1474.3130,84.0737
1475.2772,84.787
1476.2415,85.2154
1477.2057,85.4532
1478.1699,85.5716
1479.1342,85.6206
1480.0984,85.6445
1481.0626,85.6826
1482.0269,85.7569
1482.9911,85.8631
1483.9553,85.9776
1484.9196,86.0735
1485.8838,86.1335
1486.8480,86.1567
1487.8123,86.1618
1488.7765,86.1773
1489.7407,86.2038
1490.7050,86.2011
1491.6692,86.1337
1492.6334,85.9993
1493.5977,85.8111
1494.5619,85.5796
1495.5261,85.3141
1496.4904,85.0355
1497.4546,84.7753
1498.4188,84.5454
1499.3831,84.3255
1500.3473,84.0955
1501.3115,83.8568
1502.2758,83.6188
1503.2400,83.3764
1504.2042,83.0909
1505.1685,82.6864
1506.1327,82.1117
1507.0969,81.488
1508.0612,81.0218
1509.0254,80.6974
1509.9896,80.3946
1510.9539,80.0692
1511.9181,79.7428
1512.8823,79.4764
1513.8466,79.3608
1514.8108,79.4914
1515.7750,79.9151
1516.7393,80.5973
1517.7035,81.4733
1518.6677,82.5451
1519.6320,83.9024
1520.5962,85.5953
1521.5604,87.4728
1522.5247,89.2332
1523.4889,90.6834
1524.4531,91.8648
1525.4174,92.9292
1526.3816,93.9598
1527.3458,94.9155
1528.3101,95.7087
1529.2743,96.3052
1530.2385,96.7523
1531.2028,97.1473
1532.1670,97.5779
1533.1312,98.053
1534.0955,98.4851
1535.0597,98.7799
1536.0239,98.9197
1536.9882,98.9419
1537.9524,98.8807
1538.9166,98.7575
1539.8809,98.644
1540.8451,98.6875
1541.8093,98.9117
1542.7736,99.1649
1543.7378,99.3516
1544.7020,99.4632
1545.6663,99.5077
1546.6305,99.537
1547.5947,99.5151
1548.5590,99.4585
1549.5232,99.381
1550.4874,99.2852
1551.4517,99.1645
1552.4159,99.0144
1553.3801,98.8432
1554.3444,98.667
1555.3086,98.4935
1556.2728,98.3129
1557.2371,98.1264
1558.2013,98.0066
1559.1655,97.9998
1560.1298,97.9625
1561.0940,97.7888
1562.0582,97.5199
1563.0225,97.2239
1563.9867,96.939
1564.9509,96.6752
1565.9152,96.4234
1566.8794,96.1619
1567.8436,95.8665
1568.8079,95.5299
1569.7721,95.1717
1570.7363,94.8215
1571.7006,94.4944
1572.6648,94.1784
1573.6290,93.8339
1574.5933,93.4078
1575.5575,92.8801
1576.5217,92.3124
1577.4860,91.7955
1578.4502,91.3478
1579.4144,90.926
1580.3787,90.4866
1581.3429,90.0075
1582.3071,89.4889
1583.2714,88.9491
1584.2356,88.4124
1585.1998,87.8928
1586.1641,87.3898
1587.1283,86.899
1588.0925,86.422
1589.0568,85.9666
1590.0210,85.5392
1590.9852,85.14
1591.9495,84.7661
1592.9137,84.4186
1593.8779,84.1036
1594.8422,83.8277
1595.8064,83.5903
1596.7706,83.383
1597.7349,83.1952
1598.6991,83.0205
1599.6633,82.8584
1600.6276,82.7128
1601.5918,82.5887
1602.5560,82.4884
1603.5203,82.4094
1604.4845,82.3455
1605.4487,82.292
1606.4130,82.2528
1607.3772,82.2432
1608.3414,82.2821
1609.3057,82.3757
1610.2699,82.507
1611.2341,82.6501
1612.1984,82.7957
1613.1626,82.967
1614.1268,83.2224
1615.0911,83.6401
1616.0553,84.2493
1617.0195,84.938
1617.9838,85.5201
1618.9480,85.9209
1619.9122,86.2058
1620.8765,86.4817
1621.8407,86.825
1622.8049,87.2494
1623.7692,87.7027
1624.7334,88.1115
1625.6976,88.4471
1626.6619,88.7339
1627.6261,89.0035
1628.5903,89.2554
1629.5546,89.4645
1630.5188,89.6145
1631.4830,89.7139
1632.4473,89.7837
1633.4115,89.8439
1634.3757,89.9206
1635.3400,90.054
1636.3042,90.2464
1637.2684,90.4195
1638.2327,90.5089
1639.1969,90.524
1640.1611,90.5024
1641.1254,90.4708
1642.0896,90.4395
1643.0538,90.4034
1644.0181,90.3446
1644.9823,90.2469
1645.9465,90.1255
1646.9108,90.0263
1647.8750,89.9725
1648.8392,89.9559
1649.8035,89.9667
1650.7677,89.9885
1651.7319,89.9883
1652.6962,89.9552
1653.6604,89.9099
1654.6246,89.8095
1655.5889,89.6108
1656.5531,89.3606
1657.5173,89.1226
1658.4816,88.924
1659.4458,88.7579
1660.4100,88.6013
1661.3743,88.4373
1662.3385,88.265
1663.3027,88.0906
1664.2670,87.9167
1665.2312,87.7431
1666.1954,87.565
1667.1597,87.371
1668.1239,87.1545
1669.0881,86.9345
1670.0524,86.7497
1671.0166,86.6181
1671.9808,86.5249
1672.9451,86.4491
1673.9093,86.3744
1674.8735,86.2821
1675.8378,86.1493
1676.8020,85.9633
1677.7662,85.7372
1678.7305,85.5049
1679.6947,85.2984
1680.6589,85.1263
1681.6232,84.9684
1682.5874,84.7962
1683.5516,84.6095
1684.5159,84.4234
1685.4801,84.2168
1686.4443,83.9626
1687.4086,83.6691
1688.3728,83.3616
1689.3370,83.0632
1690.3013,82.7883
1691.2655,82.5382
1692.2297,82.2965
1693.1940,82.031
1694.1582,81.7066
1695.1224,81.3109
1696.0867,80.8807
1697.0509,80.4965
1698.0151,80.2246
1698.9794,80.0491
1699.9436,79.8839
1700.9078,79.6611
1701.8721,79.3845
1702.8363,79.1045
1703.8005,78.8732
1704.7648,78.7209
1705.7290,78.6516
1706.6932,78.6448
1707.6575,78.6672
1708.6217,78.6929
1709.5859,78.7154
1710.5502,78.741
1711.5144,78.7767
1712.4786,78.8251
1713.4429,78.8912
1714.4071,79.0013
1715.3713,79.224
1716.3356,79.6384
1717.2998,80.2043
1718.2640,80.7327
1719.2283,81.0923
1720.1925,81.3133
1721.1567,81.4926
1722.1210,81.7045
1723.0852,81.9751
1724.0494,82.2902
1725.0137,82.6153
1725.9779,82.921
1726.9421,83.1963
1727.9064,83.4475
1728.8706,83.6891
1729.8348,83.9408
1730.7991,84.2327
1731.7633,84.6118
1732.7275,85.1159
1733.6918,85.6978
1734.6560,86.2109
1735.6202,86.5543
1736.5845,86.7648
1737.5487,86.9474
1738.5129,87.1877
1739.4772,87.5175
1740.4414,87.9124
1741.4056,88.3145
1742.3699,88.675
1743.3341,88.9837
1744.2983,89.2611
1745.2626,89.5328
1746.2268,89.8182
1747.1910,90.1385
1748.1553,90.5233
1749.1195,90.9877
1750.0837,91.4881
1751.0480,91.9312
1752.0122,92.2533
1752.9764,92.4651
1753.9407,92.622
1754.9049,92.7776
1755.8691,92.9591
1756.8334,93.165
1757.7976,93.3792
1758.7618,93.5913
1759.7261,93.806
1760.6903,94.0332
1761.6545,94.2701
1762.6188,94.4957
1763.5830,94.6882
1764.5472,94.8438
1765.5115,94.9768
1766.4757,95.1043
1767.4399,95.2331
1768.4042,95.3615
1769.3684,95.4911
1770.3326,95.6434
1771.2969,95.8558
1772.2611,96.141
1773.2253,96.4526
1774.1896,96.7222
1775.1538,96.9254
1776.1180,97.088
1777.0823,97.2496
1778.0465,97.4355
1779.0107,97.6477
1779.9750,97.8707
1780.9392,98.0851
1781.9034,98.2802
1782.8677,98.4552
1783.8319,98.6099
1784.7961,98.738
1785.7604,98.832
1786.7246,98.8932
1787.6888,98.9352
1788.6531,98.9745
1789.6173,99.0222
1790.5815,99.0827
1791.5458,99.1578
1792.5100,99.2401
1793.4742,99.3067
1794.4385,99.3402
1795.4027,99.3499
1796.3669,99.3603
1797.3312,99.3902
1798.2954,99.4449
1799.2596,99.5199
1800.2239,99.6057
1801.1881,99.6902
1802.1523,99.7623
1803.1166,99.8159
1804.0808,99.8528
1805.0450,99.8781
1806.0093,99.8969
1806.9735,99.9122
1807.9377,99.9268
1808.9020,99.9453
1809.8662,99.9735
1810.8304,100.013
1811.7947,100.06
1812.7589,100.104
1813.7231,100.141
1814.6874,100.17
1815.6516,100.193
1816.6158,100.21
1817.5801,100.219
1818.5443,100.222
1819.5085,100.219
1820.4728,100.217
1821.4370,100.219
1822.4012,100.228
1823.3655,100.239
1824.3297,100.247
1825.2939,100.251
1826.2582,100.251
1827.2224,100.246
1828.1866,100.248
1829.1509,100.268
1830.1151,100.306
1831.0793,100.344
1832.0436,100.363
1833.0078,100.362
1833.9720,100.354
1834.9363,100.349
1835.9005,100.353
1836.8647,100.36
1837.8290,100.367
1838.7932,100.374
1839.7574,100.388
1840.7217,100.413
1841.6859,100.449
1842.6501,100.484
1843.6144,100.51
1844.5786,100.522
1845.5428,100.518
1846.5071,100.499
1847.4713,100.477
1848.4355,100.467
1849.3998,100.472
1850.3640,100.489
1851.3282,100.506
1852.2925,100.518
1853.2567,100.521
1854.2209,100.52
1855.1852,100.518
1856.1494,100.516
1857.1136,100.515
1858.0779,100.515
1859.0421,100.516
1860.0063,100.518
1860.9706,100.517
1861.9348,100.51
1862.8990,100.492
1863.8633,100.466
1864.8275,100.437
1865.7917,100.411
1866.7560,100.398
1867.7202,100.413
1868.6844,100.46
1869.6487,100.518
1870.6129,100.557
1871.5771,100.568
1872.5414,100.558
1873.5056,100.545
1874.4698,100.537
1875.4341,100.535
1876.3983,100.535
1877.3625,100.533
1878.3268,100.53
1879.2910,100.527
1880.2552,100.525
1881.2195,100.523
1882.1837,100.518
1883.1479,100.509
1884.1122,100.494
1885.0764,100.48
1886.0406,100.469
1887.0049,100.465
1887.9691,100.468
1888.9333,100.474
1889.8976,100.476
1890.8618,100.469
1891.8260,100.452
1892.7903,100.433
1893.7545,100.417
1894.7188,100.41
1895.6830,100.412
1896.6472,100.418
1897.6115,100.422
1898.5757,100.419
1899.5399,100.41
1900.5042,100.398
1901.4684,100.385
1902.4326,100.372
1903.3969,100.357
1904.3611,100.339
1905.3253,100.317
1906.2896,100.292
1907.2538,100.269
1908.2180,100.254
1909.1823,100.247
1910.1465,100.247
1911.1107,100.246
1912.0750,100.241
1913.0392,100.234
1914.0034,100.231
1914.9677,100.234
1915.9319,100.242
1916.8961,100.249
1917.8604,100.245
1918.8246,100.224
1919.7888,100.19
1920.7531,100.151
1921.7173,100.122
1922.6815,100.111
1923.6458,100.116
1924.6100,100.129
1925.5742,100.138
1926.5385,100.139
1927.5027,100.132
1928.4669,100.119
1929.4312,100.104
1930.3954,100.089
1931.3596,100.076
1932.3239,100.07
1933.2881,100.072
1934.2523,100.082
1935.2166,100.095
1936.1808,100.106
1937.1450,100.11
1938.1093,100.106
1939.0735,100.095
1940.0377,100.083
1941.0020,100.073
1941.9662,100.067
1942.9304,100.068
1943.8947,100.073
1944.8589,100.079
1945.8231,100.088
1946.7874,100.099
1947.7516,100.114
1948.7158,100.129
1949.6801,100.142
1950.6443,100.151
1951.6085,100.156
1952.5728,100.162
1953.5370,100.17
1954.5012,100.182
1955.4655,100.196
1956.4297,100.21
1957.3939,100.22
1958.3582,100.227
1959.3224,100.231
1960.2866,100.234
1961.2509,100.234
1962.2151,100.233
1963.1793,100.23
1964.1436,100.227
1965.1078,100.228
1966.0720,100.233
1967.0363,100.246
1968.0005,100.264
1968.9647,100.282
1969.9290,100.297
1970.8932,100.306
1971.8574,100.31
1972.8217,100.311
1973.7859,100.311
1974.7501,100.31
1975.7144,100.311
1976.6786,100.311
1977.6428,100.312
1978.6071,100.311
1979.5713,100.309
1980.5355,100.305
1981.4998,100.301
1982.4640,100.297
1983.4282,100.292
1984.3925,100.287
1985.3567,100.283
1986.3209,100.278
1987.2852,100.273
1988.2494,100.268
1989.2136,100.266
1990.1779,100.265
1991.1421,100.268
1992.1063,100.273
1993.0706,100.279
1994.0348,100.284
1994.9990,100.286
1995.9633,100.285
1996.9275,100.283
1997.8917,100.28
1998.8560,100.278
1999.8202,100.276
2000.7844,100.275
2001.7487,100.275
2002.7129,100.274
2003.6771,100.271
2004.6414,100.264
2005.6056,100.254
2006.5698,100.242
2007.5341,100.231
2008.4983,100.224
2009.4625,100.219
2010.4268,100.216
2011.3910,100.212
2012.3552,100.206
2013.3195,100.198
2014.2837,100.188
2015.2479,100.179
2016.2122,100.174
2017.1764,100.173
2018.1406,100.175
2019.1049,100.178
2020.0691,100.178
2021.0333,100.176
2021.9976,100.172
2022.9618,100.168
2023.9260,100.164
2024.8903,100.163
2025.8545,100.161
2026.8187,100.159
2027.7830,100.156
2028.7472,100.151
2029.7114,100.145
2030.6757,100.138
2031.6399,100.131
2032.6041,100.124
2033.5684,100.12
2034.5326,100.118
2035.4968,100.118
2036.4611,100.117
2037.4253,100.116
2038.3895,100.113
2039.3538,100.108
2040.3180,100.103
2041.2822,100.1
2042.2465,100.099
2043.2107,100.099
2044.1749,100.098
2045.1392,100.095
2046.1034,100.09
2047.0676,100.083
2048.0320,100.075
2048.9961,100.067
2049.9604,100.06
2050.9246,100.055
2051.8889,100.051
2052.8530,100.047
2053.8174,100.042
2054.7815,100.037
2055.7458,100.032
2056.7100,100.027
2057.6743,100.022
2058.6384,100.018
2059.6028,100.012
2060.5669,100.005
2061.5313,99.9963
2062.4954,99.9883
2063.4597,99.9835
2064.4238,99.984
2065.3882,99.9899
2066.3523,99.9993
2067.3167,100.009
2068.2808,100.016
2069.2451,100.021
2070.2092,100.022
2071.1736,100.022
2072.1377,100.021
2073.1021,100.02
2074.0662,100.02
2075.0305,100.018
2075.9946,100.017
2076.9590,100.014
2077.9231,100.01
2078.8875,100.007
2079.8516,100.003
2080.8159,99.9992
2081.7800,99.9961
2082.7444,99.9938
2083.7085,99.9924
2084.6729,99.9921
2085.6370,99.993
2086.6013,99.9948
2087.5654,99.9969
2088.5298,99.9981
2089.4939,99.9974
2090.4583,99.9942
2091.4224,99.9888
2092.3867,99.9825
2093.3508,99.9765
2094.3152,99.9719
2095.2793,99.9689
2096.2437,99.9668
2097.2078,99.9646
2098.1721,99.9611
2099.1362,99.9557
2100.1006,99.9479
2101.0647,99.9404
2102.0291,99.9337
2102.9932,99.9291
2103.9575,99.9271
2104.9216,99.9271
2105.8860,99.9276
2106.8501,99.9269
2107.8145,99.9235
2108.7786,99.9172
2109.7429,99.9085
2110.7070,99.8991
2111.6714,99.8913
2112.6355,99.8868
2113.5999,99.8872
2114.5640,99.8924
2115.5283,99.9009
2116.4924,99.91
2117.4568,99.9168
2118.4209,99.9189
2119.3853,99.9159
2120.3494,99.9089
2121.3137,99.9
2122.2778,99.8917
2123.2422,99.8852
2124.2063,99.8808
2125.1707,99.8783
2126.1348,99.8777
2127.0991,99.8792
2128.0632,99.8835
2129.0276,99.8905
2129.9917,99.8993
2130.9561,99.9081
2131.9202,99.9148
2132.8845,99.9181
2133.8486,99.9184
2134.8130,99.9175
2135.7771,99.9181
2136.7415,99.922
2137.7056,99.9298
2138.6699,99.9401
2139.6340,99.9505
2140.5984,99.9589
2141.5625,99.9644
2142.5269,99.968
2143.4910,99.9714
2144.4553,99.9763
2145.4194,99.9835
2146.3838,99.9921
2147.3479,100.001
2148.3123,100.008
2149.2764,100.012
2150.2407,100.015
2151.2048,100.015
2152.1692,100.014
2153.1333,100.014
2154.0977,100.015
2155.0618,100.02
2156.0261,100.026
2156.9902,100.035
2157.9546,100.043
2158.9187,100.051
2159.8831,100.057
2160.8472,100.062
2161.8115,100.068
2162.7756,100.073
2163.7400,100.077
2164.7041,100.08
2165.6685,100.079
2166.6326,100.076
2167.5969,100.073
2168.5610,100.069
2169.5254,100.067
2170.4895,100.066
2171.4539,100.065
2172.4180,100.065
2173.3823,100.066
2174.3464,100.069
2175.3108,100.073
2176.2749,100.079
2177.2393,100.086
2178.2034,100.091
2179.1677,100.092
2180.1318,100.09
2181.0962,100.085
2182.0603,100.077
2183.0247,100.07
2183.9888,100.065
2184.9531,100.064
2185.9172,100.066
2186.8816,100.071
2187.8457,100.078
2188.8101,100.084
2189.7742,100.09
2190.7385,100.095
2191.7026,100.1
2192.6670,100.103
2193.6311,100.107
2194.5955,100.109
2195.5596,100.111
2196.5239,100.112
2197.4880,100.113
2198.4524,100.113
2199.4165,100.112
2200.3809,100.111
2201.3450,100.11
2202.3093,100.108
2203.2734,100.107
2204.2378,100.105
2205.2019,100.103
2206.1663,100.103
2207.1304,100.104
2208.0947,100.107
2209.0588,100.111
2210.0232,100.115
2210.9873,100.115
2211.9517,100.112
2212.9158,100.107
2213.8801,100.102
2214.8442,100.099
2215.8086,100.097
2216.7727,100.096
2217.7371,100.093
2218.7012,100.087
2219.6655,100.078
2220.6296,100.069
2221.5940,100.061
2222.5581,100.057
2223.5225,100.057
2224.4866,100.058
2225.4509,100.06
2226.4150,100.058
2227.3794,100.052
2228.3435,100.041
2229.3079,100.027
2230.2720,100.01
2231.2363,99.9949
2232.2004,99.9822
2233.1648,99.9734
2234.1289,99.9685
2235.0933,99.9662
2236.0574,99.9649
2237.0217,99.9629
2237.9858,99.9588
2238.9502,99.9522
2239.9143,99.9429
2240.8787,99.9315
2241.8428,99.9189
2242.8071,99.9059
2243.7712,99.8932
2244.7356,99.8816
2245.6997,99.8713
2246.6641,99.8625
2247.6282,99.8549
2248.5925,99.8478
2249.5566,99.8404
2250.5210,99.832
2251.4851,99.8222
2252.4495,99.811
2253.4136,99.7986
2254.3779,99.7852
2255.3420,99.771
2256.3064,99.7568
2257.2705,99.7434
2258.2349,99.7316
2259.1990,99.7216
2260.1633,99.7126
2261.1274,99.7035
2262.0918,99.6936
2263.0559,99.6832
2264.0203,99.6738
2264.9844,99.6669
2265.9487,99.6625
2266.9128,99.6593
2267.8772,99.6546
2268.8413,99.6469
2269.8057,99.6362
2270.7698,99.625
2271.7341,99.6161
2272.6982,99.6114
2273.6626,99.6108
2274.6267,99.6128
2275.5911,99.6155
2276.5552,99.6178
2277.5195,99.6197
2278.4836,99.6217
2279.4480,99.6243
2280.4121,99.6266
2281.3765,99.6275
2282.3406,99.6252
2283.3049,99.6185
2284.2690,99.6067
2285.2334,99.5904
2286.1975,99.5706
2287.1619,99.5492
2288.1260,99.5274
2289.0903,99.5059
2290.0544,99.4845
2291.0188,99.4631
2291.9829,99.4424
2292.9473,99.424
2293.9114,99.4098
2294.8757,99.4005
2295.8398,99.3961
2296.8042,99.3956
2297.7683,99.3984
2298.7327,99.4053
2299.6968,99.4175
2300.6611,99.4358
2301.6252,99.4585
2302.5896,99.4816
2303.5537,99.4999
2304.5181,99.5091
2305.4822,99.5091
2306.4465,99.5042
2307.4106,99.5025
2308.3750,99.5128
2309.3391,99.5402
2310.3035,99.5833
2311.2676,99.6345
2312.2319,99.6832
2313.1960,99.7212
2314.1604,99.7469
2315.1245,99.765
2316.0889,99.7843
2317.0530,99.8123
2318.0173,99.851
2318.9814,99.8941
2319.9458,99.927
2320.9099,99.93
2321.8743,99.8855
2322.8384,99.7876
2323.8027,99.6496
2324.7668,99.5026
2325.7312,99.3848
2326.6953,99.3258
2327.6597,99.3334
2328.6238,99.3874
2329.5881,99.4454
2330.5522,99.4621
2331.5166,99.4127
2332.4807,99.3056
2333.4451,99.1752
2334.4092,99.0602
2335.3735,98.9836
2336.3376,98.944
2337.3020,98.9202
2338.2661,98.8861
2339.2305,98.8272
2340.1946,98.7542
2341.1589,98.7076
2342.1230,98.7461
2343.0874,98.9008
2344.0515,99.1122
2345.0159,99.2473
2345.9800,99.2228
2346.9443,99.0751
2347.9084,98.9075
2348.8728,98.8084
2349.8369,98.8081
2350.8013,98.8741
2351.7654,98.9328
2352.7297,98.9156
2353.6938,98.8089
2354.6582,98.6584
2355.6223,98.5144
2356.5867,98.3898
2357.5508,98.2788
2358.5151,98.1892
2359.4792,98.1368
2360.4436,98.1222
2361.4077,98.1306
2362.3721,98.1566
2363.3362,98.2177
2364.3005,98.3377
2365.2646,98.5217
2366.2290,98.7476
2367.1931,98.9799
2368.1575,99.2007
2369.1216,99.3948
2370.0859,99.5519
2371.0500,99.6784
2372.0144,99.7789
2372.9785,99.8524
2373.9429,99.8929
2374.9070,99.8942
2375.8713,99.8553
2376.8354,99.7824
2377.7998,99.6873
2378.7639,99.5838
2379.7283,99.4839
2380.6924,99.3963
2381.6567,99.3266
2382.6208,99.2774
2383.5852,99.249
2384.5493,99.2389
2385.5137,99.2425
2386.4778,99.2535
2387.4421,99.2662
2388.4063,99.2762
2389.3706,99.2821
2390.3347,99.2846
2391.2991,99.2861
2392.2632,99.2888
2393.2275,99.2941
2394.1917,99.3023
2395.1560,99.3132
2396.1201,99.3262
2397.0845,99.3406
2398.0486,99.355
2399.0129,99.3677
2399.9771,99.3773
2400.9414,99.3826
2401.9055,99.3841
2402.8699,99.3833
2403.8340,99.3826
2404.7983,99.3842
2405.7625,99.3888
2406.7268,99.3957
2407.6909,99.403
2408.6553,99.4093
2409.6194,99.4146
2410.5837,99.42
2411.5479,99.4273
2412.5122,99.4369
2413.4763,99.4481
2414.4407,99.4589
2415.4048,99.4678
2416.3691,99.4748
2417.3333,99.4814
2418.2976,99.4895
2419.2617,99.5
2420.2261,99.5122
2421.1902,99.5239
2422.1545,99.5335
2423.1187,99.5405
2424.0830,99.5463
2425.0471,99.5525
2426.0115,99.5604
2426.9756,99.5698
2427.9399,99.5801
2428.9041,99.5904
2429.8684,99.6003
2430.8325,99.6101
2431.7969,99.6197
2432.7610,99.6287
2433.7253,99.6364
2434.6895,99.6424
2435.6538,99.6469
2436.6179,99.6509
2437.5823,99.6557
2438.5464,99.6624
2439.5107,99.6716
2440.4749,99.6831
2441.4392,99.6958
2442.4033,99.7082
2443.3677,99.7188
2444.3318,99.7267
2445.2961,99.7324
2446.2603,99.737
2447.2246,99.7419
2448.1887,99.7475
2449.1531,99.7534
2450.1172,99.7583
2451.0815,99.7616
2452.0457,99.7636
2453.0100,99.7659
2453.9741,99.7698
2454.9385,99.7757
2455.9026,99.7822
2456.8669,99.7876
2457.8311,99.7902
2458.7954,99.7896
2459.7595,99.7871
2460.7239,99.7847
2461.6880,99.7843
2462.6523,99.7873
2463.6165,99.7935
2464.5808,99.8019
2465.5449,99.8106
2466.5093,99.8173
2467.4734,99.8205
2468.4377,99.8199
2469.4019,99.8166
2470.3662,99.8134
2471.3303,99.8131
2472.2947,99.8176
2473.2588,99.8263
2474.2231,99.8373
2475.1873,99.8472
2476.1516,99.8535
2477.1157,99.8553
2478.0801,99.8537
2479.0442,99.851
2480.0085,99.8493
2480.9727,99.8503
2481.9370,99.8542
2482.9011,99.8603
2483.8655,99.8677
2484.8296,99.8756
2485.7939,99.8835
2486.7581,99.8912
2487.7224,99.8985
2488.6865,99.9047
2489.6509,99.9094
2490.6150,99.9121
2491.5793,99.9128
2492.5435,99.9123
2493.5078,99.9122
2494.4719,99.914
2495.4363,99.9191
2496.4004,99.9275
2497.3647,99.9379
2498.3289,99.9483
2499.2932,99.957
2500.2573,99.963
2501.2217,99.9669
2502.1858,99.9701
2503.1501,99.9745
2504.1143,99.9811
2505.0786,99.9901
2506.0427,100
2507.0071,100.009
2507.9712,100.015
2508.9355,100.016
2509.8997,100.013
2510.8640,100.008
2511.8281,100.004
2512.7925,100.004
2513.7566,100.009
2514.7209,100.02
2515.6851,100.035
2516.6494,100.05
2517.6135,100.064
2518.5779,100.075
2519.5420,100.081
2520.5063,100.083
2521.4705,100.083
2522.4348,100.083
2523.3989,100.084
2524.3633,100.088
2525.3274,100.094
2526.2917,100.102
2527.2559,100.111
2528.2202,100.12
2529.1843,100.127
2530.1487,100.134
2531.1128,100.14
2532.0771,100.145
2533.0413,100.148
2534.0056,100.15
2534.9697,100.152
2535.9341,100.156
2536.8982,100.162
2537.8625,100.172
2538.8267,100.184
2539.7910,100.197
2540.7551,100.209
2541.7195,100.217
2542.6836,100.224
2543.6479,100.229
2544.6121,100.237
2545.5764,100.246
2546.5405,100.258
2547.5049,100.27
2548.4690,100.28
2549.4333,100.287
2550.3975,100.292
2551.3618,100.296
2552.3259,100.301
2553.2903,100.309
2554.2544,100.319
2555.2188,100.331
2556.1829,100.341
2557.1472,100.35
2558.1113,100.357
2559.0757,100.364
2560.0398,100.371
2561.0042,100.378
2561.9683,100.382
2562.9326,100.384
2563.8967,100.384
2564.8611,100.384
2565.8252,100.388
2566.7896,100.396
2567.7537,100.407
2568.7180,100.419
2569.6821,100.428
2570.6465,100.434
2571.6106,100.437
2572.5750,100.439
2573.5391,100.441
2574.5034,100.443
2575.4675,100.445
2576.4319,100.447
2577.3960,100.451
2578.3604,100.459
2579.3245,100.471
2580.2888,100.485
2581.2529,100.498
2582.2173,100.508
2583.1814,100.515
2584.1458,100.519
2585.1099,100.523
2586.0742,100.526
2587.0383,100.528
2588.0027,100.528
2588.9668,100.526
2589.9312,100.522
2590.8953,100.52
2591.8596,100.519
2592.8237,100.521
2593.7881,100.525
2594.7522,100.531
2595.7166,100.538
2596.6807,100.545
2597.6450,100.551
2598.6091,100.556
2599.5735,100.559
2600.5376,100.56
2601.5020,100.561
2602.4661,100.564
2603.4304,100.569
2604.3945,100.577
2605.3589,100.586
2606.3230,100.596
2607.2874,100.606
2608.2515,100.616
2609.2158,100.624
2610.1799,100.631
2611.1443,100.635
2612.1084,100.636
2613.0728,100.634
2614.0369,100.633
2615.0012,100.632
2615.9653,100.635
2616.9297,100.639
2617.8938,100.643
2618.8582,100.646
2619.8223,100.648
2620.7866,100.65
2621.7507,100.654
2622.7151,100.66
2623.6792,100.669
2624.6436,100.678
2625.6077,100.687
2626.5720,100.693
2627.5361,100.696
2628.5005,100.699
2629.4646,100.701
2630.4290,100.704
2631.3931,100.708
2632.3574,100.712
2633.3215,100.716
2634.2859,100.72
2635.2500,100.724
2636.2144,100.728
2637.1785,100.734
2638.1428,100.741
2639.1069,100.75
2640.0713,100.761
2641.0354,100.77
2641.9998,100.778
2642.9639,100.784
2643.9282,100.788
2644.8923,100.793
2645.8567,100.798
2646.8208,100.805
2647.7852,100.812
2648.7493,100.815
2649.7136,100.815
2650.6777,100.812
2651.6421,100.81
2652.6062,100.812
2653.5706,100.82
2654.5347,100.835
2655.4990,100.853
2656.4631,100.872
2657.4275,100.89
2658.3916,100.904
2659.3560,100.915
2660.3201,100.924
2661.2844,100.932
2662.2485,100.94
2663.2129,100.95
2664.1770,100.961
2665.1414,100.976
2666.1055,100.993
2667.0698,101.013
2668.0339,101.033
2668.9983,101.051
2669.9624,101.066
2670.9268,101.077
2671.8909,101.085
2672.8552,101.093
2673.8193,101.103
2674.7837,101.116
2675.7478,101.132
2676.7122,101.147
2677.6763,101.16
2678.6406,101.167
2679.6047,101.169
2680.5691,101.169
2681.5332,101.168
2682.4976,101.169
2683.4617,101.172
2684.4260,101.175
2685.3901,101.178
2686.3545,101.178
2687.3186,101.177
2688.2830,101.176
2689.2471,101.179
2690.2114,101.185
2691.1755,101.195
2692.1399,101.207
2693.1040,101.22
2694.0684,101.23
2695.0325,101.236
2695.9968,101.238
2696.9609,101.237
2697.9253,101.234
2698.8894,101.231
2699.8538,101.227
2700.8179,101.223
2701.7822,101.218
2702.7463,101.212
2703.7107,101.204
2704.6748,101.196
2705.6392,101.185
2706.6033,101.174
2707.5676,101.163
2708.5317,101.152
2709.4961,101.144
2710.4602,101.137
2711.4246,101.13
2712.3887,101.124
2713.3530,101.115
2714.3171,101.102
2715.2815,101.088
2716.2456,101.072
2717.2100,101.058
2718.1741,101.046
2719.1384,101.039
2720.1025,101.036
2721.0669,101.037
2722.0310,101.039
2722.9954,101.037
2723.9595,101.03
2724.9238,101.016
2725.8879,100.997
2726.8523,100.976
2727.8164,100.957
2728.7808,100.944
2729.7449,100.937
2730.7092,100.936
2731.6733,100.937
2732.6377,100.938
2733.6018,100.936
2734.5662,100.929
2735.5303,100.916
2736.4946,100.896
2737.4587,100.87
2738.4231,100.842
2739.3872,100.816
2740.3516,100.794
2741.3157,100.781
2742.2800,100.775
2743.2441,100.778
2744.2085,100.786
2745.1726,100.797
2746.1370,100.806
2747.1011,100.811
2748.0654,100.809
2749.0295,100.802
2749.9939,100.792
2750.9580,100.782
2751.9224,100.776
2752.8865,100.774
2753.8508,100.775
2754.8149,100.775
2755.7793,100.772
2756.7434,100.762
2757.7078,100.746
2758.6719,100.729
2759.6362,100.712
2760.6003,100.698
2761.5647,100.689
2762.5288,100.681
2763.4932,100.672
2764.4573,100.66
2765.4216,100.644
2766.3857,100.627
2767.3501,100.611
2768.3142,100.6
2769.2786,100.591
2770.2427,100.582
2771.2070,100.569
2772.1711,100.548
2773.1355,100.518
2774.0996,100.483
2775.0640,100.445
2776.0281,100.411
2776.9924,100.38
2777.9565,100.351
2778.9209,100.321
2779.8850,100.285
2780.8494,100.242
2781.8135,100.194
2782.7778,100.146
2783.7419,100.103
2784.7063,100.068
2785.6704,100.04
2786.6348,100.014
2787.5989,99.986
2788.5632,99.95
2789.5273,99.9056
2790.4917,99.8555
2791.4558,99.8042
2792.4202,99.7555
2793.3843,99.7109
2794.3486,99.6693
2795.3127,99.6278
2796.2771,99.5838
2797.2412,99.5356
2798.2056,99.4829
2799.1697,99.426
2800.1340,99.3655
2801.0981,99.3023
2802.0625,99.2378
2803.0266,99.1741
2803.9910,99.1119
2804.9551,99.0466
2805.9194,98.9839
2806.8835,98.92
2807.8479,98.8499
2808.8120,98.769
2809.7764,98.6747
2810.7405,98.5679
2811.7048,98.4517
2812.6689,98.3299
2813.6333,98.2054
2814.5974,98.0787
2815.5618,97.948
2816.5259,97.8102
2817.4902,97.6617
2818.4543,97.4999
2819.4187,97.3237
2820.3828,97.1334
2821.3472,96.9302
2822.3113,96.7155
2823.2756,96.4895
2824.2397,96.2515
2825.2041,95.9994
2826.1682,95.7311
2827.1326,95.4452
2828.0967,95.1413
2829.0610,94.8206
2830.0251,94.4855
2830.9895,94.1391
2831.9536,93.7845
2832.9180,93.4245
2833.8821,93.061
2834.8464,92.695
2835.8105,92.3272
2836.7749,91.9584
2837.7390,91.5909
2838.7034,91.2281
2839.6675,90.8728
2840.6318,90.525
2841.5959,90.1797
2842.5603,89.8273
2843.5244,89.4581
2844.4888,89.069
2845.4529,88.669
2846.4172,88.28
2847.3813,87.9303
2848.3457,87.6437
2849.3098,87.4292
2850.2742,87.2767
2851.2383,87.1612
2852.2026,87.0535
2853.1667,86.9301
2854.1311,86.7793
2855.0952,86.6008
2856.0596,86.4001
2857.0237,86.1824
2857.9880,85.9496
2858.9521,85.6999
2859.9165,85.4304
2860.8806,85.14
2861.8450,84.8311
2862.8091,84.5101
2863.7734,84.1864
2864.7375,83.8705
2865.7019,83.5709
2866.6660,83.2926
2867.6304,83.0366
2868.5945,82.8008
2869.5588,82.5821
2870.5229,82.3774
2871.4873,82.1832
2872.4514,81.9943
2873.4158,81.8036
2874.3799,81.6031
2875.3442,81.3858
2876.3083,81.1479
2877.2727,80.8886
2878.2368,80.6108
2879.2012,80.3209
2880.1653,80.0305
2881.1296,79.7557
2882.0938,79.5155
2883.0581,79.3263
2884.0222,79.1963
2884.9866,79.1211
2885.9507,79.0832
2886.9150,79.0564
2887.8792,79.014
2888.8435,78.9387
2889.8076,78.8298
2890.7720,78.7048
2891.7361,78.5896
2892.7004,78.5013
2893.6646,78.4301
2894.6289,78.3349
2895.5930,78.1599
2896.5574,77.8665
2897.5215,77.4647
2898.4858,77.0207
2899.4500,76.6335
2900.4143,76.3904
2901.3784,76.326
2902.3428,76.4087
2903.3069,76.5609
2904.2712,76.6981
2905.2354,76.7631
2906.1997,76.739
2907.1638,76.6397
2908.1282,76.4916
2909.0923,76.3193
2910.0566,76.1407
2911.0208,75.9691
2911.9851,75.8143
2912.9492,75.6819
2913.9136,75.5717
2914.8777,75.4785
2915.8420,75.396
2916.8062,75.3198
2917.7705,75.2493
2918.7346,75.1858
2919.6990,75.1306
2920.6631,75.0841
2921.6274,75.0468
2922.5916,75.0186
2923.5559,74.9989
2924.5200,74.9853
2925.4844,74.9745
2926.4485,74.9648
2927.4128,74.9572
2928.3770,74.9554
2929.3413,74.9628
2930.3054,74.9802
2931.2698,75.0061
2932.2339,75.0391
2933.1982,75.0812
2934.1624,75.1383
2935.1267,75.2174
2936.0908,75.3218
2937.0552,75.448
2938.0193,75.5873
2938.9836,75.7301
2939.9478,75.8724
2940.9121,76.0181
2941.8762,76.1778
2942.8406,76.3616
2943.8047,76.5723
2944.7690,76.8001
2945.7332,77.0248
2946.6975,77.2228
2947.6616,77.3761
2948.6260,77.479
2949.5901,77.5382
2950.5544,77.5676
2951.5186,77.5816
2952.4829,77.5888
2953.4470,77.5915
2954.4114,77.5886
2955.3755,77.5799
2956.3398,77.5691
2957.3040,77.5628
2958.2683,77.567
2959.2324,77.5824
2960.1968,77.6027
2961.1609,77.6154
2962.1252,77.6069
2963.0894,77.5685
2964.0537,77.5003
2965.0178,77.4109
2965.9822,77.3148
2966.9463,77.2278
2967.9106,77.1652
2968.8748,77.1414
2969.8391,77.1695
2970.8032,77.259
2971.7676,77.4122
2972.7317,77.6209
2973.6960,77.8675
2974.6602,78.1303
2975.6245,78.391
2976.5886,78.6398
2977.5530,78.8762
2978.5171,79.1055
2979.4814,79.3316
2980.4456,79.5506
2981.4099,79.7458
2982.3740,79.8901
2983.3384,79.9573
2984.3025,79.9413
2985.2668,79.875
2986.2310,79.8349
2987.1953,79.9212
2988.1594,80.2175
2989.1238,80.7482
2990.0879,81.4597
2991.0522,82.2387
2992.0164,82.9607
2992.9807,83.5425
2993.9448,83.9707
2994.9092,84.2936
2995.8733,84.5845
2996.8376,84.9029
2997.8018,85.2725
2998.7661,85.6851
2999.7302,86.1199
3000.6946,86.5608
3001.6587,87.0043
3002.6230,87.4557
3003.5872,87.9213
3004.5515,88.403
3005.5156,88.897
3006.4800,89.3957
3007.4441,89.891
3008.4084,90.376
3009.3726,90.8473
3010.3369,91.3048
3011.3010,91.7512
3012.2654,92.1901
3013.2295,92.6235
3014.1938,93.0504
3015.1580,93.4674
3016.1223,93.8705
3017.0864,94.2567
3018.0508,94.6249
3019.0149,94.9755
3019.9792,95.3102
3020.9434,95.6314
3021.9077,95.9418
3022.8718,96.2434
3023.8362,96.5365
3024.8003,96.819
3025.7646,97.0879
3026.7288,97.3406
3027.6931,97.5769
3028.6572,97.7987
3029.6216,98.0092
3030.5857,98.2114
3031.5500,98.4062
3032.5142,98.5929
3033.4785,98.7695
3034.4426,98.9343
3035.4070,99.0861
3036.3711,99.2249
3037.3354,99.3509
3038.2996,99.4649
3039.2639,99.5674
3040.2280,99.6584
3041.1924,99.7377
3042.1565,99.8052
3043.1208,99.8618
3044.0850,99.9099
3045.0493,99.9529
3046.0134,99.9933
3046.9778,100.009
3047.9419,100.014
3048.9063,100.008
3049.8704,99.9873
3050.8347,99.9524
3051.7988,99.9081
3052.7632,99.8616
3053.7273,99.8194
3054.6917,99.7847
3055.6558,99.7569
3056.6201,99.7322
3057.5842,99.7065
3058.5486,99.6759
3059.5127,99.6381
3060.4771,99.5917
3061.4412,99.5369
3062.4055,99.4763
3063.3696,99.4145
3064.3340,99.3568
3065.2981,99.3069
3066.2625,99.2645
3067.2266,99.226
3068.1909,99.1865
3069.1550,99.1428
3070.1194,99.0947
3071.0835,99.0445
3072.0479,98.9946
3073.0120,98.9455
3073.9763,98.8957
3074.9404,98.8428
3075.9048,98.7858
3076.8689,98.726
3077.8333,98.6666
3078.7974,98.6111
3079.7617,98.5616
3080.7258,98.5178
3081.6902,98.477
3082.6543,98.4357
3083.6187,98.3902
3084.5828,98.3376
3085.5471,98.2768
3086.5112,98.2087
3087.4756,98.1365
3088.4397,98.0646
3089.4041,97.9967
3090.3682,97.9348
3091.3325,97.8774
3092.2966,97.821
3093.2610,97.7612
3094.2251,97.6949
3095.1895,97.6216
3096.1536,97.5429
3097.1179,97.4621
3098.0820,97.3823
3099.0464,97.3058
3100.0105,97.2336
3100.9749,97.1654
3101.9390,97.1
3102.9033,97.0357
3103.8674,96.9706
3104.8318,96.9034
3105.7959,96.8336
3106.7603,96.761
3107.7244,96.6855
3108.6887,96.6071
3109.6528,96.5255
3110.6172,96.4405
3111.5813,96.3524
3112.5457,96.2621
3113.5098,96.1709
3114.4741,96.0809
3115.4382,95.9939
3116.4026,95.9114
3117.3667,95.8341
3118.3311,95.7616
3119.2952,95.6924
3120.2595,95.6243
3121.2236,95.5551
3122.1880,95.4837
3123.1521,95.4096
3124.1165,95.333
3125.0806,95.254
3126.0449,95.1723
3127.0090,95.0876
3127.9734,95.0004
3128.9375,94.9124
3129.9019,94.8261
3130.8660,94.7438
3131.8303,94.6659
3132.7944,94.5904
3133.7588,94.5145
3134.7229,94.4358
3135.6873,94.3543
3136.6514,94.2719
3137.6157,94.1903
3138.5798,94.1103
3139.5442,94.03
3140.5083,93.947
3141.4727,93.8593
3142.4368,93.7668
3143.4011,93.6711
3144.3652,93.5742
3145.3296,93.4777
3146.2937,93.383
3147.2581,93.2917
3148.2222,93.2051
3149.1865,93.1242
3150.1506,93.0477
3151.1150,92.972
3152.0791,92.8928
3153.0435,92.8067
3154.0076,92.7136
3154.9719,92.6157
3155.9360,92.5164
3156.9004,92.4182
3157.8645,92.3221
3158.8289,92.2281
3159.7930,92.1359
3160.7573,92.0456
3161.7214,91.9568
3162.6858,91.8686
3163.6499,91.7796
3164.6143,91.6888
3165.5784,91.597
3166.5427,91.5062
3167.5068,91.4185
3168.4712,91.3339
3169.4353,91.2619
3170.3997,91.1735
3171.3638,91.0769
3172.3281,90.9716
3173.2922,90.8605
3174.2566,90.7494
3175.2207,90.6439
3176.1851,90.5475
3177.1492,90.4596
3178.1135,90.3771
3179.0776,90.2958
3180.0420,90.2131
3181.0061,90.1289
3181.9705,90.0448
3182.9346,89.9624
3183.8989,89.8816
3184.8630,89.8004
3185.8274,89.7153
3186.7915,89.6244
3187.7559,89.5279
3188.7200,89.4288
3189.6843,89.3311
3190.6484,89.2374
3191.6128,89.1476
3192.5769,89.0597
3193.5413,88.9713
3194.5054,88.8815
3195.4697,88.7914
3196.4338,88.7033
3197.3982,88.6189
3198.3623,88.5381
3199.3267,88.4596
3200.2908,88.3819
3201.2551,88.3042
3202.2192,88.226
3203.1836,88.1464
3204.1477,88.0636
3205.1121,87.9759
3206.0762,87.8836
3207.0405,87.7901
3208.0046,87.7004
3208.9690,87.6188
3209.9331,87.5455
3210.8975,87.4765
3211.8616,87.4056
3212.8259,87.3281
3213.7900,87.2439
3214.7544,87.1567
3215.7185,87.0718
3216.6829,86.9925
3217.6470,86.9186
3218.6113,86.8472
3219.5754,86.7748
3220.5398,86.6999
3221.5039,86.6231
3222.4683,86.5465
3223.4324,86.4721
3224.3967,86.401
3225.3608,86.3336
3226.3252,86.27
3227.2893,86.2106
3228.2537,86.1552
3229.2178,86.1028
3230.1821,86.0507
3231.1462,85.9962
3232.1106,85.9371
3233.0747,85.8739
3234.0391,85.8084
3235.0032,85.743
3235.9675,85.678
3236.9316,85.6122
3237.8960,85.5439
3238.8601,85.4729
3239.8245,85.402
3240.7886,85.3357
3241.7529,85.2779
3242.7170,85.2298
3243.6814,85.1889
3244.6455,85.1499
3245.6099,85.1075
3246.5740,85.0582
3247.5383,85.0016
3248.5024,84.9401
3249.4668,84.8781
3250.4309,84.8196
3251.3953,84.7672
3252.3594,84.72
3253.3237,84.6749
3254.2878,84.6273
3255.2522,84.575
3256.2163,84.519
3257.1807,84.4632
3258.1448,84.4117
3259.1091,84.3654
3260.0732,84.3222
3261.0376,84.2778
3262.0017,84.2296
3262.9661,84.1775
3263.9302,84.1237
3264.8945,84.0703
3265.8586,84.0172
3266.8230,83.9624
3267.7871,83.9036
3268.7515,83.84
3269.7156,83.7732
3270.6799,83.7069
3271.6440,83.6449
3272.6084,83.5905
3273.5725,83.5455
3274.5369,83.51
3275.5010,83.4823
3276.4653,83.4583
3277.4294,83.4332
3278.3938,83.4027
3279.3579,83.3655
3280.3223,83.3235
3281.2864,83.2808
3282.2507,83.2404
3283.2148,83.202
3284.1792,83.1619
3285.1433,83.1151
3286.1077,83.0596
3287.0718,82.9977
3288.0361,82.9356
3289.0002,82.8797
3289.9646,82.8331
3290.9287,82.7945
3291.8931,82.7602
3292.8572,82.7272
3293.8215,82.6945
3294.7856,82.663
3295.7500,82.6324
3296.7141,82.5998
3297.6785,82.5606
3298.6426,82.5117
3299.6069,82.4542
3300.5710,82.3935
3301.5354,82.3367
3302.4995,82.2886
3303.4639,82.2499
3304.4280,82.2181
3305.3923,82.1897
3306.3564,82.1626
3307.3208,82.1371
3308.2849,82.1134
3309.2493,82.0907
3310.2134,82.0668
3311.1777,82.0393
3312.1418,82.0078
3313.1062,81.9735
3314.0703,81.9389
3315.0347,81.9051
3315.9988,81.8719
3316.9631,81.8376
3317.9272,81.8013
3318.8916,81.7633
3319.8557,81.7253
3320.8201,81.6886
3321.7842,81.6535
3322.7485,81.6189
3323.7126,81.5837
3324.6770,81.5486
3325.6411,81.5153
3326.6055,81.4862
3327.5696,81.4621
3328.5339,81.4415
3329.4980,81.4217
3330.4624,81.4001
3331.4265,81.3763
3332.3909,81.352
3333.3550,81.33
3334.3193,81.312
3335.2834,81.2974
3336.2478,81.2833
3337.2119,81.2656
3338.1763,81.2418
3339.1404,81.2122
3340.1047,81.1794
3341.0688,81.1473
3342.0332,81.1186
3342.9973,81.0934
3343.9617,81.0702
3344.9258,81.0471
3345.8901,81.0241
3346.8542,81.0039
3347.8186,80.9899
3348.7827,80.9841
3349.7471,80.9846
3350.7112,80.9868
3351.6755,80.9852
3352.6396,80.9767
3353.6040,80.9614
3354.5681,80.9423
3355.5325,80.9223
3356.4966,80.9037
3357.4609,80.8869
3358.4250,80.8718
3359.3894,80.8577
3360.3535,80.8437
3361.3179,80.8279
3362.2820,80.8088
3363.2463,80.7868
3364.2104,80.765
3365.1748,80.749
3366.1389,80.7439
3367.1033,80.751
3368.0674,80.7669
3369.0317,80.7846
3369.9958,80.7976
3370.9602,80.8023
3371.9243,80.7987
3372.8887,80.7895
3373.8528,80.7779
3374.8171,80.767
3375.7813,80.7594
3376.7456,80.7572
3377.7097,80.7616
3378.6741,80.7713
3379.6382,80.7833
3380.6025,80.7939
3381.5667,80.8009
3382.5310,80.8051
3383.4951,80.8088
3384.4595,80.8144
3385.4236,80.8217
3386.3879,80.8295
3387.3521,80.837
3388.3164,80.8456
3389.2805,80.8588
3390.2449,80.8793
3391.2090,80.9064
3392.1733,80.937
3393.1375,80.9673
3394.1018,80.9972
3395.0659,81.0296
3396.0303,81.0679
3396.9944,81.1111
3397.9587,81.1526
3398.9229,81.1829
3399.8872,81.1961
3400.8513,81.1943
3401.8157,81.1872
3402.7798,81.1864
3403.7441,81.1998
3404.7083,81.2282
3405.6726,81.2669
3406.6367,81.3096
3407.6011,81.3529
3408.5652,81.3959
3409.5295,81.4387
3410.4937,81.4801
3411.4580,81.5166
3412.4221,81.5451
3413.3865,81.5645
3414.3506,81.577
3415.3149,81.5873
3416.2791,81.6007
3417.2434,81.6217
3418.2075,81.6543
3419.1719,81.7013
3420.1360,81.7629
3421.1003,81.8356
3422.0645,81.9115
3423.0288,81.982
3423.9929,82.041
3424.9573,82.0883
3425.9214,82.1292
3426.8857,82.1719
3427.8499,82.2228
3428.8142,82.2831
3429.7783,82.3492
3430.7427,82.4158
3431.7068,82.4791
3432.6711,82.5396
3433.6353,82.5995
3434.5996,82.6604
3435.5637,82.7212
3436.5281,82.7784
3437.4922,82.8292
3438.4565,82.8736
3439.4207,82.9143
3440.3850,82.9555
3441.3491,83.0002
3442.3135,83.0496
3443.2776,83.1036
3444.2419,83.1634
3445.2061,83.2311
3446.1704,83.3091
3447.1345,83.3967
3448.0989,83.4893
3449.0630,83.5797
3450.0273,83.662
3450.9915,83.734
3451.9558,83.7968
3452.9199,83.8535
3453.8843,83.9079
3454.8484,83.9628
3455.8127,84.0207
3456.7769,84.0832
3457.7412,84.1514
3458.7053,84.2252
3459.6697,84.3024
3460.6338,84.3794
3461.5981,84.453
3462.5623,84.5222
3463.5266,84.59
3464.4907,84.6618
3465.4551,84.7425
3466.4192,84.8323
3467.3835,84.9263
3468.3477,85.0159
3469.3120,85.094
3470.2761,85.1592
3471.2405,85.2171
3472.2046,85.2779
3473.1689,85.3509
3474.1331,85.4392
3475.0974,85.5382
3476.0615,85.6373
3477.0259,85.7271
3477.9900,85.8031
3478.9543,85.8684
3479.9185,85.9311
3480.8828,85.9997
3481.8469,86.0782
3482.8113,86.165
3483.7754,86.2551
3484.7397,86.3449
3485.7039,86.4351
3486.6682,86.5292
3487.6323,86.6306
3488.5967,86.7385
3489.5608,86.8471
3490.5251,86.9483
3491.4893,87.0369
3492.4536,87.1147
3493.4177,87.1899
3494.3821,87.2726
3495.3462,87.3673
3496.3105,87.4692
3497.2747,87.5663
3498.2390,87.6485
3499.2031,87.7155
3500.1675,87.779
3501.1316,87.8575
3502.0959,87.9649
3503.0601,88.1001
3504.0244,88.2463
3504.9885,88.3841
3505.9529,88.5042
3506.9170,88.6101
3507.8813,88.7118
3508.8455,88.8179
3509.8098,88.9307
3510.7739,89.0468
3511.7383,89.1622
3512.7024,89.2772
3513.6667,89.3955
3514.6309,89.52
3515.5952,89.6484
3516.5593,89.7736
3517.5237,89.8877
3518.4878,89.9869
3519.4521,90.0741
3520.4163,90.1568
3521.3806,90.2435
3522.3447,90.3396
3523.3091,90.4464
3524.2732,90.5636
3525.2375,90.6916
3526.2017,90.8324
3527.1660,90.9861
3528.1301,91.1465
3529.0945,91.3013
3530.0586,91.4377
3531.0229,91.5515
3531.9871,91.6492
3532.9514,91.7448
3533.9155,91.8531
3534.8799,91.9826
3535.8440,92.1312
3536.8083,92.2864
3537.7725,92.4315
3538.7368,92.554
3539.7009,92.6497
3540.6653,92.7237
3541.6294,92.7884
3542.5938,92.8618
3543.5579,92.9642
3544.5222,93.109
3545.4863,93.2903
3546.4507,93.4827
3547.4148,93.6584
3548.3792,93.8052
3549.3433,93.9313
3550.3076,94.0551
3551.2717,94.1929
3552.2361,94.3498
3553.2002,94.5165
3554.1646,94.6777
3555.1287,94.823
3556.0930,94.952
3557.0571,95.0698
3558.0215,95.1795
3558.9856,95.2784
3559.9500,95.3606
3560.9141,95.4225
3561.8784,95.4679
3562.8425,95.5081
3563.8069,95.5615
3564.7710,95.6548
3565.7354,95.8173
3566.6995,96.0541
3567.6638,96.3198
3568.6279,96.5501
3569.5923,96.7176
3570.5564,96.8367
3571.5208,96.9335
3572.4849,97.0248
3573.4492,97.1149
3574.4133,97.2019
3575.3777,97.2854
3576.3418,97.3695
3577.3062,97.4604
3578.2703,97.5602
3579.2346,97.663
3580.1987,97.7569
3581.1631,97.831
3582.1272,97.8824
3583.0916,97.9172
3584.0557,97.948
3585.0200,97.9927
3585.9841,98.0726
3586.9485,98.1956
3587.9126,98.3335
3588.8770,98.4398
3589.8411,98.4937
3590.8054,98.5109
3591.7695,98.5202
3592.7339,98.5449
3593.6980,98.5948
3594.6624,98.6646
3595.6265,98.7387
3596.5908,98.8042
3597.5549,98.8621
3598.5193,98.9256
3599.4834,99.0068
3600.4478,99.1038
3601.4119,99.2008
3602.3762,99.2808
3603.3403,99.3398
3604.3047,99.3876
3605.2688,99.44
3606.2332,99.5111
3607.1973,99.6047
3608.1616,99.7087
3609.1257,99.8002
3610.0901,99.861
3611.0542,99.8898
3612.0186,99.8979
3612.9829,99.8985
3613.9470,99.899
3614.9114,99.9015
3615.8755,99.9082
3616.8398,99.9259
3617.8040,99.9654
3618.7683,100.029
3619.7324,100.097
3620.6968,100.131
3621.6609,100.112
3622.6252,100.055
3623.5894,99.9922
3624.5537,99.9491
3625.5178,99.9345
3626.4822,99.929
3627.4463,99.9498
3628.4106,100.013
3629.3748,100.083
3630.3391,100.101
3631.3032,100.057
3632.2676,99.9849
3633.2317,99.9186
3634.1960,99.8706
3635.1602,99.8326
3636.1245,99.7894
3637.0886,99.7306
3638.0530,99.6553
3639.0171,99.5673
3639.9814,99.4698
3640.9456,99.3628
3641.9099,99.2455
3642.8740,99.1196
3643.8384,98.9874
3644.8025,98.845
3645.7668,98.6797
3646.7310,98.4891
3647.6953,98.3283
3648.6594,98.2962
3649.6238,98.3773
3650.5879,98.4301
3651.5522,98.3821
3652.5164,98.2615
3653.4807,98.1133
3654.4448,97.9603
3655.4092,97.8085
3656.3733,97.6633
3657.3376,97.5333
3658.3018,97.4262
3659.2661,97.3483
3660.2302,97.302
3661.1946,97.2821
3662.1587,97.2755
3663.1230,97.2679
3664.0872,97.2526
3665.0515,97.2312
3666.0156,97.2073
3666.9800,97.181
3667.9441,97.1541
3668.9084,97.1343
3669.8726,97.1214
3670.8369,97.094
3671.8010,97.0311
3672.7654,96.937
3673.7295,96.8516
3674.6938,96.8518
3675.6580,97.0012
3676.6223,97.2584
3677.5864,97.5032
3678.5508,97.6563
3679.5149,97.7085
3680.4792,97.6799
3681.4434,97.5954
3682.4077,97.4834
3683.3718,97.3756
3684.3362,97.2973
3685.3003,97.2563
3686.2646,97.2409
3687.2288,97.2363
3688.1931,97.2533
3689.1572,97.3249
3690.1216,97.4533
3691.0857,97.599
3692.0500,97.7326
3693.0142,97.855
3693.9785,97.9777
3694.9426,98.1066
3695.9070,98.2402
3696.8711,98.3747
3697.8354,98.5086
3698.7996,98.6452
3699.7639,98.7915
3700.7280,98.9524
3701.6924,99.1203
3702.6565,99.273
3703.6208,99.3872
3704.5850,99.4561
3705.5493,99.4877
3706.5134,99.4933
3707.4778,99.4808
3708.4419,99.4655
3709.4063,99.4896
3710.3704,99.6117
3711.3347,99.833
3712.2988,100.064
3713.2632,100.213
3714.2273,100.262
3715.1917,100.245
3716.1558,100.196
3717.1201,100.135
3718.0842,100.067
3719.0486,99.9896
3720.0127,99.9046
3720.9771,99.8217
3721.9412,99.7551
3722.9055,99.7174
3723.8696,99.7117
3724.8340,99.7263
3725.7981,99.739
3726.7625,99.7315
3727.7266,99.7007
3728.6909,99.656
3729.6550,99.6082
3730.6194,99.5645
3731.5835,99.5572
3732.5479,99.5526
3733.5120,99.5789
3734.4763,99.6697
3735.4404,99.8079
3736.4048,99.9216
3737.3689,99.9658
3738.3333,99.9632
3739.2974,99.9682
3740.2617,100.02
3741.2258,100.121
3742.1902,100.232
3743.1543,100.293
3744.1187,100.263
3745.0828,100.143
3746.0471,99.9734
3747.0112,99.806
3747.9756,99.6836
3748.9397,99.6398
3749.9041,99.703
3750.8682,99.8565
3751.8325,100.002
3752.7966,100.049
3753.7610,99.9979
3754.7251,99.9087
3755.6895,99.8345
3756.6536,99.8033
3757.6179,99.8221
3758.5820,99.8785
3759.5464,99.9436
3760.5105,99.9894
3761.4749,100.008
3762.4390,100.01
3763.4033,100.009
3764.3674,100.013
3765.3318,100.021
3766.2959,100.029
3767.2603,100.035
3768.2244,100.043
3769.1887,100.058
3770.1528,100.079
3771.1172,100.094
3772.0813,100.093
3773.0457,100.077
3774.0098,100.055
3774.9741,100.038
3775.9382,100.032
3776.9026,100.033
3777.8667,100.037
3778.8311,100.04
3779.7952,100.034
3780.7595,100.015
3781.7236,99.9848
3782.6880,99.9537
3783.6521,99.9333
3784.6165,99.9325
3785.5806,99.9546
3786.5449,99.9955
3787.5090,100.046
3788.4734,100.095
3789.4375,100.136
3790.4019,100.165
3791.3660,100.178
3792.3303,100.173
3793.2944,100.142
3794.2588,100.086
3795.2229,100.013
3796.1873,99.9397
3797.1514,99.8815
3798.1157,99.8445
3799.0798,99.8258
3800.0442,99.8215
3801.0083,99.8312
3801.9727,99.8527
3802.9368,99.8829
3803.9011,99.9269
3804.8652,99.9936
3805.8296,100.079
3806.7937,100.159
3807.7581,100.196
3808.7222,100.174
3809.6865,100.113
3810.6506,100.055
3811.6150,100.032
3812.5791,100.045
3813.5435,100.071
3814.5076,100.079
3815.4719,100.053
3816.4360,100.001
3817.4004,99.9435
3818.3645,99.9035
3819.3289,99.8987
3820.2930,99.9313
3821.2573,99.9773
3822.2214,99.9985
3823.1858,99.9791
3824.1499,99.9381
3825.1143,99.908
3826.0784,99.9096
3827.0427,99.943
3828.0068,99.9919
3828.9712,100.035
3829.9353,100.06
3830.8997,100.065
3831.8638,100.06
3832.8281,100.054
3833.7922,100.046
3834.7566,100.028
3835.7207,99.9854
3836.6851,99.923
3837.6492,99.8675
3838.6135,99.8517
3839.5776,99.885
3840.5420,99.95
3841.5061,100.023
3842.4705,100.087
3843.4346,100.126
3844.3989,100.13
3845.3630,100.098
3846.3274,100.045
3847.2915,99.9993
3848.2559,99.9895
3849.2200,100.031
3850.1843,100.114
3851.1484,100.213
3852.1128,100.317
3853.0769,100.427
3854.0413,100.487
3855.0054,100.429
3855.9697,100.287
3856.9338,100.145
3857.8982,100.061
3858.8623,100.045
3859.8267,100.073
3860.7908,100.106
3861.7551,100.117
3862.7192,100.107
3863.6836,100.094
3864.6477,100.095
3865.6121,100.108
3866.5762,100.121
3867.5405,100.128
3868.5046,100.125
3869.4690,100.122
3870.4331,100.132
3871.3975,100.159
3872.3616,100.189
3873.3259,100.208
3874.2900,100.212
3875.2544,100.207
3876.2185,100.202
3877.1829,100.198
3878.1470,100.193
3879.1113,100.183
3880.0754,100.174
3881.0398,100.176
3882.0039,100.198
3882.9683,100.242
3883.9324,100.297
3884.8967,100.348
3885.8608,100.376
3886.8252,100.374
3887.7893,100.346
3888.7537,100.308
3889.7178,100.273
3890.6821,100.249
3891.6462,100.243
3892.6106,100.248
3893.5747,100.252
3894.5391,100.252
3895.5032,100.252
3896.4675,100.253
3897.4316,100.25
3898.3960,100.241
3899.3601,100.234
3900.3245,100.241
3901.2886,100.263
3902.2529,100.293
3903.2170,100.318
3904.1814,100.331
3905.1455,100.33
3906.1099,100.319
3907.0740,100.308
3908.0383,100.305
3909.0024,100.31
3909.9668,100.321
3910.9309,100.33
3911.8953,100.336
3912.8594,100.339
3913.8237,100.34
3914.7878,100.342
3915.7522,100.346
3916.7163,100.352
3917.6807,100.357
3918.6448,100.355
3919.6091,100.34
3920.5732,100.315
3921.5376,100.292
3922.5017,100.279
3923.4661,100.279
3924.4302,100.285
3925.3945,100.285
3926.3586,100.271
3927.3230,100.245
3928.2871,100.215
3929.2515,100.198
3930.2156,100.205
3931.1799,100.243
3932.1440,100.304
3933.1084,100.37
3934.0725,100.423
3935.0369,100.455
3936.0010,100.464
3936.9653,100.454
3937.9294,100.428
3938.8938,100.389
3939.8579,100.345
3940.8223,100.307
3941.7864,100.286
3942.7507,100.291
3943.7148,100.316
3944.6792,100.349
3945.6433,100.376
3946.6077,100.385
3947.5718,100.374
3948.5361,100.35
3949.5002,100.326
3950.4646,100.314
3951.4287,100.319
3952.3931,100.337
3953.3572,100.358
3954.3215,100.373
3955.2856,100.378
3956.2500,100.374
3957.2141,100.367
3958.1785,100.363
3959.1426,100.369
3960.1069,100.383
3961.0710,100.404
3962.0354,100.423
3962.9995,100.435
3963.9639,100.437
3964.9280,100.429
3965.8923,100.414
3966.8564,100.396
3967.8208,100.379
3968.7849,100.365
3969.7493,100.356
3970.7134,100.354
3971.6777,100.357
3972.6418,100.364
3973.6062,100.374
3974.5703,100.383
3975.5347,100.389
3976.4988,100.391
3977.4631,100.39
3978.4272,100.387
3979.3916,100.385
3980.3557,100.382
3981.3201,100.378
3982.2842,100.371
3983.2485,100.364
3984.2126,100.359
3985.1770,100.358
3986.1411,100.364
3987.1055,100.375
3988.0696,100.384
3989.0339,100.382
3989.9980,100.366
3990.9624,100.337
3991.9265,100.308
3992.8909,100.29
3993.8550,100.291
3994.8193,100.31
3995.7834,100.335
3996.7478,100.351
3997.7119,100.354
3998.6763,100.345
3999.6404,100.335
4000.6047,100.24

##### Extended Information
[Comments]
Sample name
Comment
User
Division
Company,HANKYONG

[Detailed Information]
Creation date,4/24/2024 10:31 AM

Data array type,Linear data array
Horizontal axis,Wavenumber [cm-1]
Vertical axis,%T
Start,649.893 cm-1
End,4000.6 cm-1
Data interval,0.964233 cm-1
Data points,3476    

[Measurement Information]
Model Name,FT/IR-4700typeA
Serial Number,D056761788

Accessory,ATR PRO ONE
Accessory S/N,C174761809
Incident angle,45 deg

Measurement Date,4/24/2024 10:31 AM

Light Source,Standard
Detector,TGS
Accumulation,32
Resolution,4 cm-1
Zero Filling,On
Apodization,Cosine
Gain,Auto (4)
Aperture,Auto (7.1 mm)
Scanning Speed,Auto (2 mm/sec)
Filter,Auto (30000 Hz)

