TITLE,
DATA TYPE,INFRARED SPECTRUM
ORIGIN,JASCO
OWNER,
DATE,24/04/24
TIME,11:10:00
SPECTROMETER/DATA SYSTEM,
LOCALE,1033
RESOLUTION,
DELTAX,0.964233
XUNITS,1/CM
YUNITS,TRANSMITTANCE
FIRSTX,  649.8934
LASTX, 4000.6047
NPOINTS,    3476
FIRSTY,    98.33768
MAXY,   101.43181
MINY,    52.69307
XYDATA
649.8934,98.3377
650.8576,98.428
651.8218,98.5281
652.7861,98.4661
653.7503,98.3629
654.7145,98.2452
655.6788,98.1284
656.6430,98.0294
657.6072,97.9618
658.5715,97.936
659.5357,97.958
660.4999,98.0197
661.4642,98.088
662.4284,98.1101
663.3926,98.0297
664.3569,97.7998
665.3211,97.3877
666.2853,96.8
667.2496,96.1582
668.2138,95.749
669.1780,95.7894
670.1423,96.1272
671.1065,96.4695
672.0707,96.677
673.0350,96.7498
673.9992,96.7418
674.9634,96.7192
675.9277,96.7385
676.8919,96.8289
677.8561,96.9861
678.8204,97.1854
679.7846,97.3998
680.7488,97.6113
681.7131,97.8135
682.6773,98.0118
683.6415,98.2212
684.6058,98.4576
685.5700,98.7263
686.5342,99.0107
687.4985,99.2718
688.4627,99.4601
689.4269,99.5339
690.3912,99.4769
691.3554,99.3191
692.3196,99.1576
693.2839,99.1331
694.2481,99.3292
695.2123,99.6951
696.1766,100.107
697.1408,100.462
698.1050,100.699
699.0693,100.803
700.0335,100.793
700.9977,100.714
701.9620,100.617
702.9262,100.543
703.8904,100.516
704.8547,100.542
705.8189,100.611
706.7831,100.705
707.7474,100.8
708.7116,100.877
709.6758,100.923
710.6401,100.932
711.6043,100.902
712.5685,100.832
713.5328,100.722
714.4970,100.57
715.4612,100.64
716.4255,100.406
717.3897,100.183
718.3539,100.011
719.3182,99.9279
720.2824,99.9515
721.2466,100.065
722.2109,100.222
723.1751,100.37
724.1393,100.469
725.1036,100.503
726.0678,100.481
727.0320,100.432
727.9963,100.394
728.9605,100.397
729.9247,100.46
730.8890,100.574
731.8532,100.719
732.8174,100.859
733.7817,100.962
734.7459,101.001
735.7101,100.959
736.6744,100.83
737.6386,100.625
738.6028,100.367
739.5671,100.118
740.5313,99.9251
741.4955,99.7748
742.4598,99.6694
743.4240,99.593
744.3882,99.5244
745.3525,99.4502
746.3167,99.3708
747.2809,99.2955
748.2452,99.2337
749.2094,99.1888
750.1736,99.16
751.1379,99.1482
752.1021,99.1581
753.0663,99.1948
754.0306,99.2565
754.9948,99.3316
755.9590,99.4036
756.9233,99.4596
757.8875,99.498
758.8517,99.527
759.8160,99.5583
760.7802,99.5993
761.7444,99.6515
762.7087,99.7134
763.6729,99.7861
764.6371,99.8745
765.6014,99.9847
766.5656,100.119
767.5298,100.274
768.4941,100.442
769.4583,100.615
770.4225,100.787
771.3868,100.952
772.3510,101.106
773.3152,101.241
774.2795,101.346
775.2437,101.41
776.2079,101.432
777.1722,101.417
778.1364,101.382
779.1006,101.346
780.0649,101.323
781.0291,101.319
781.9933,101.327
782.9576,101.332
783.9218,101.326
784.8860,101.304
785.8503,101.274
786.8145,101.247
787.7787,101.229
788.7430,101.221
789.7072,101.219
790.6714,101.218
791.6357,101.213
792.5999,101.206
793.5641,101.195
794.5284,101.177
795.4926,101.147
796.4568,101.098
797.4211,101.027
798.3853,100.936
799.3495,100.83
800.3138,100.708
801.2780,100.571
802.2422,100.415
803.2065,100.239
804.1707,100.047
805.1349,99.8453
806.0992,99.641
807.0634,99.4352
808.0276,99.224
808.9919,99.0012
809.9561,98.7632
810.9203,98.5119
811.8846,98.2552
812.8488,98.0036
813.8130,97.7673
814.7773,97.5535
815.7415,97.3664
816.7057,97.2075
817.6700,97.0754
818.6342,96.9653
819.5984,96.8696
820.5627,96.7807
821.5269,96.6948
822.4911,96.6147
823.4554,96.5493
824.4196,96.5091
825.3839,96.5009
826.3481,96.5232
827.3123,96.5663
828.2766,96.6146
829.2408,96.6504
830.2050,96.6569
831.1693,96.6203
832.1335,96.5321
833.0977,96.391
834.0620,96.204
835.0262,95.9843
835.9904,95.7463
836.9547,95.4997
837.9189,95.246
838.8831,94.9797
839.8474,94.6935
840.8116,94.384
841.7758,94.0554
842.7401,93.7189
843.7043,93.3887
844.6685,93.0778
845.6328,92.7941
846.5970,92.54
847.5612,92.3135
848.5255,92.1117
849.4897,91.9326
850.4539,91.7772
851.4182,91.6481
852.3824,91.5471
853.3466,91.4727
854.3109,91.4197
855.2751,91.3808
856.2393,91.3506
857.2036,91.3279
858.1678,91.3154
859.1320,91.3168
860.0963,91.3348
861.0605,91.3703
862.0247,91.4251
862.9890,91.5045
863.9532,91.6174
864.9174,91.7735
865.8817,91.9772
866.8459,92.2247
867.8101,92.5043
868.7744,92.8013
869.7386,93.1031
870.7028,93.4018
871.6671,93.6915
872.6313,93.9644
873.5955,94.2093
874.5598,94.4138
875.5240,94.5709
876.4882,94.6834
877.4525,94.7638
878.4167,94.8287
879.3809,94.8904
880.3452,94.953
881.3094,95.013
882.2736,95.0645
883.2379,95.1037
884.2021,95.1299
885.1663,95.1433
886.1306,95.142
887.0948,95.1221
888.0590,95.0813
889.0233,95.022
889.9875,94.9522
890.9517,94.8823
891.9160,94.8206
892.8802,94.7701
893.8444,94.7294
894.8087,94.6941
895.7729,94.6594
896.7371,94.6201
897.7014,94.5701
898.6656,94.503
899.6298,94.4137
900.5941,94.3013
901.5583,94.1689
902.5225,94.0232
903.4868,93.8707
904.4510,93.7163
905.4152,93.5619
906.3795,93.4067
907.3437,93.2486
908.3079,93.085
909.2722,92.9147
910.2364,92.7399
911.2006,92.5678
912.1649,92.4103
913.1291,92.281
914.0933,92.1911
915.0576,92.1452
916.0218,92.1417
916.9860,92.1746
917.9503,92.2388
918.9145,92.3324
919.8787,92.4579
920.8430,92.6193
921.8072,92.8189
922.7714,93.0545
923.7357,93.3184
924.6999,93.5997
925.6641,93.8882
926.6284,94.1793
927.5926,94.4772
928.5568,94.7944
929.5211,95.1471
930.4853,95.5479
931.4495,95.9992
932.4138,96.4906
933.3780,97.0022
934.3422,97.5104
935.3065,97.9957
936.2707,98.4449
937.2349,98.8505
938.1992,99.2077
939.1634,99.5123
940.1276,99.7613
941.0919,99.9549
942.0561,100.097
943.0203,100.195
943.9846,100.255
944.9488,100.278
945.9130,100.262
946.8773,100.234
947.8415,100.241
948.8057,100.217
949.7700,100.169
950.7342,100.105
951.6984,100.026
952.6627,99.9246
953.6269,99.7925
954.5911,99.6214
955.5554,99.4072
956.5196,99.1506
957.4838,98.8546
958.4481,98.5219
959.4123,98.1537
960.3765,97.7497
961.3408,97.31
962.3050,96.8375
963.2692,96.3394
964.2335,95.8272
965.1977,95.3149
966.1619,94.8157
967.1262,94.3387
968.0904,93.8879
969.0546,93.462
970.0189,93.0576
970.9831,92.6722
971.9473,92.3057
972.9116,91.9606
973.8758,91.6398
974.8400,91.3429
975.8043,91.0647
976.7685,90.7945
977.7327,90.5186
978.6970,90.2233
979.6612,89.8984
980.6254,89.538
981.5897,89.1396
982.5539,88.7022
983.5181,88.2257
984.4824,87.7126
985.4466,87.1711
986.4108,86.6174
987.3751,86.0745
988.3393,85.5676
989.3035,85.1183
990.2678,84.7396
991.2320,84.4343
992.1962,84.1961
993.1605,84.0117
994.1247,83.8642
995.0889,83.7363
996.0532,83.6128
997.0174,83.4819
997.9816,83.3357
998.9459,83.1681
999.9101,82.973
1000.8743,82.7421
1001.8386,82.4648
1002.8028,82.1288
1003.7670,81.7217
1004.7313,81.2331
1005.6955,80.6555
1006.6597,79.9862
1007.6240,79.2274
1008.5882,78.3853
1009.5524,77.4681
1010.5167,76.4831
1011.4809,75.4361
1012.4451,74.3327
1013.4094,73.1788
1014.3736,71.9819
1015.3378,70.7502
1016.3021,69.4928
1017.2663,68.2202
1018.2305,66.945
1019.1948,65.6793
1020.1590,64.4289
1021.1232,63.1878
1022.0875,61.9408
1023.0517,60.675
1024.0160,59.3969
1024.9802,58.1438
1025.9445,56.9769
1026.9087,55.9598
1027.8729,55.1308
1028.8372,54.4875
1029.8014,53.9921
1030.7656,53.5952
1031.7299,53.2614
1032.6941,52.9845
1033.6583,52.7848
1034.6226,52.6931
1035.5868,52.7342
1036.5510,52.9155
1037.5153,53.2249
1038.4795,53.6342
1039.4437,54.1067
1040.4080,54.6057
1041.3722,55.1034
1042.3364,55.5876
1043.3007,56.0621
1044.2649,56.5417
1045.2291,57.0426
1046.1934,57.5753
1047.1576,58.1427
1048.1218,58.7445
1049.0861,59.3832
1050.0503,60.0652
1051.0145,60.7963
1051.9788,61.5752
1052.9430,62.3913
1053.9072,63.2305
1054.8715,64.0864
1055.8357,64.9678
1056.7999,65.8938
1057.7642,66.8751
1058.7284,67.8903
1059.6926,68.8765
1060.6569,69.7436
1061.6211,70.4137
1062.5853,70.8641
1063.5496,71.1487
1064.5138,71.3798
1065.4780,71.6765
1066.4423,72.1048
1067.4065,72.6461
1068.3707,73.2086
1069.3350,73.6771
1070.2992,73.9685
1071.2634,74.0634
1072.2277,74.0014
1073.1919,73.8492
1074.1561,73.6664
1075.1204,73.4873
1076.0846,73.323
1077.0488,73.1737
1078.0131,73.039
1078.9773,72.9192
1079.9415,72.8126
1080.9058,72.7128
1081.8700,72.611
1082.8342,72.5
1083.7985,72.3773
1084.7627,72.2452
1085.7269,72.1082
1086.6912,71.9723
1087.6554,71.8432
1088.6196,71.7253
1089.5839,71.6183
1090.5481,71.5149
1091.5123,71.4009
1092.4766,71.2598
1093.4408,71.0795
1094.4050,70.8575
1095.3693,70.6018
1096.3335,70.3265
1097.2977,70.0457
1098.2620,69.7686
1099.2262,69.4991
1100.1904,69.2377
1101.1547,68.9859
1102.1189,68.7484
1103.0831,68.5342
1104.0474,68.3548
1105.0116,68.2222
1105.9758,68.1466
1106.9401,68.1366
1107.9043,68.201
1108.8685,68.35
1109.8328,68.5964
1110.7970,68.954
1111.7612,69.4348
1112.7255,70.0463
1113.6897,70.7906
1114.6539,71.6645
1115.6182,72.661
1116.5824,73.7706
1117.5466,74.9818
1118.5109,76.2818
1119.4751,77.6577
1120.4393,79.0969
1121.4036,80.5879
1122.3678,82.1185
1123.3320,83.6747
1124.2963,85.2391
1125.2605,86.7905
1126.2247,88.3051
1127.1890,89.7591
1128.1532,91.1305
1129.1174,92.4013
1130.0817,93.5597
1131.0459,94.6003
1132.0101,95.5237
1132.9744,96.3331
1133.9386,97.032
1134.9028,97.6207
1135.8671,98.0974
1136.8313,98.4612
1137.7955,98.7153
1138.7598,98.8681
1139.7240,98.9313
1140.6882,98.8889
1141.6525,98.6793
1142.6167,98.4025
1143.5809,98.0675
1144.5452,97.6914
1145.5094,97.3009
1146.4736,96.9262
1147.4379,96.5932
1148.4021,96.3167
1149.3663,96.0995
1150.3306,95.9375
1151.2948,95.8255
1152.2590,95.7608
1153.2233,95.7415
1154.1875,95.7615
1155.1517,95.8073
1156.1160,95.8574
1157.0802,95.8874
1158.0444,95.8748
1159.0087,95.803
1159.9729,95.6626
1160.9371,95.4498
1161.9014,95.165
1162.8656,94.8125
1163.8298,94.3998
1164.7941,93.9382
1165.7583,93.4413
1166.7225,92.923
1167.6868,92.3952
1168.6510,91.8667
1169.6152,91.3413
1170.5795,90.8186
1171.5437,90.2939
1172.5079,89.7601
1173.4722,89.21
1174.4364,88.639
1175.4006,88.0467
1176.3649,87.4373
1177.3291,86.8183
1178.2933,86.1976
1179.2576,85.5813
1180.2218,84.9721
1181.1860,84.37
1182.1503,83.7739
1183.1145,83.1846
1184.0787,82.6057
1185.0430,82.0436
1186.0072,81.5047
1186.9714,80.9925
1187.9357,80.5058
1188.8999,80.039
1189.8641,79.5851
1190.8284,79.138
1191.7926,78.6954
1192.7568,78.258
1193.7211,77.8281
1194.6853,77.4077
1195.6495,76.9969
1196.6138,76.594
1197.5780,76.1961
1198.5422,75.8011
1199.5065,75.443
1200.4707,75.0505
1201.4349,74.6663
1202.3992,74.296
1203.3634,73.9456
1204.3276,73.6207
1205.2919,73.3259
1206.2561,73.0643
1207.2203,72.8381
1208.1846,72.6485
1209.1488,72.496
1210.1130,72.3815
1211.0773,72.3057
1212.0415,72.2693
1213.0057,72.2722
1213.9700,72.3133
1214.9342,72.3906
1215.8984,72.5024
1216.8627,72.6477
1217.8269,72.8253
1218.7911,73.033
1219.7554,73.2657
1220.7196,73.5161
1221.6838,73.776
1222.6481,74.0382
1223.6123,74.298
1224.5765,74.5526
1225.5408,74.8003
1226.5050,75.0381
1227.4692,75.261
1228.4335,75.4627
1229.3977,75.6383
1230.3619,75.7869
1231.3262,75.9149
1232.2904,76.0347
1233.2546,76.1592
1234.2189,76.2947
1235.1831,76.4336
1236.1473,76.5563
1237.1116,76.6408
1238.0758,76.6778
1239.0400,76.6818
1240.0043,76.6884
1240.9685,76.7393
1241.9327,76.8602
1242.8970,77.0467
1243.8612,77.2655
1244.8254,77.4723
1245.7897,77.6337
1246.7539,77.7408
1247.7181,77.8074
1248.6824,77.8565
1249.6466,77.9043
1250.6108,77.9523
1251.5751,77.989
1252.5393,77.9979
1253.5035,77.9671
1254.4678,77.8934
1255.4320,77.7828
1256.3962,77.6468
1257.3605,77.4988
1258.3247,77.3511
1259.2889,77.2133
1260.2532,77.0916
1261.2174,76.9898
1262.1816,76.9097
1263.1459,76.8522
1264.1101,76.8169
1265.0743,76.8025
1266.0386,76.8071
1267.0028,76.8299
1267.9670,76.8724
1268.9313,76.9387
1269.8955,77.0332
1270.8597,77.1588
1271.8240,77.3142
1272.7882,77.4959
1273.7524,77.7
1274.7167,77.9249
1275.6809,78.1709
1276.6451,78.4385
1277.6094,78.7267
1278.5736,79.0321
1279.5378,79.3491
1280.5021,79.6716
1281.4663,79.994
1282.4305,80.3116
1283.3948,80.6208
1284.3590,80.9203
1285.3232,81.2111
1286.2875,81.497
1287.2517,81.7828
1288.2159,82.0719
1289.1802,82.3634
1290.1444,82.6526
1291.1086,82.9335
1292.0729,83.2023
1293.0371,83.4599
1294.0013,83.7119
1294.9656,83.9657
1295.9298,84.2261
1296.8940,84.4928
1297.8583,84.759
1298.8225,85.0142
1299.7867,85.2475
1300.7510,85.4515
1301.7152,85.6234
1302.6794,85.7658
1303.6437,85.8843
1304.6079,85.9836
1305.5721,86.0654
1306.5364,86.127
1307.5006,86.1637
1308.4648,86.1713
1309.4291,86.1504
1310.3933,86.1061
1311.3575,86.0467
1312.3218,85.9805
1313.2860,85.9126
1314.2502,85.8436
1315.2145,85.7722
1316.1787,85.698
1317.1429,85.6231
1318.1072,85.5514
1319.0714,85.4853
1320.0356,85.4225
1320.9999,85.3572
1321.9641,85.2836
1322.9283,85.2006
1323.8926,85.1128
1324.8568,85.0291
1325.8210,84.9601
1326.7853,84.9146
1327.7495,84.8988
1328.7137,84.9168
1329.6780,84.9713
1330.6422,85.0635
1331.6064,85.1892
1332.5707,85.3379
1333.5349,85.4934
1334.4991,85.6403
1335.4634,85.7717
1336.4276,85.895
1337.3918,86.0327
1338.3561,86.2122
1339.3203,86.4433
1340.2845,86.7015
1341.2488,86.9411
1342.2130,87.1257
1343.1772,87.2442
1344.1415,87.3042
1345.1057,87.3204
1346.0699,87.3066
1347.0342,87.2743
1347.9984,87.2309
1348.9626,87.1796
1349.9269,87.1205
1350.8911,87.0518
1351.8553,86.9733
1352.8196,86.8878
1353.7838,86.8005
1354.7480,86.7165
1355.7123,86.6366
1356.6765,86.5566
1357.6407,86.4706
1358.6050,86.3762
1359.5692,86.2794
1360.5334,86.1978
1361.4977,86.1562
1362.4619,86.1687
1363.4261,86.2192
1364.3904,86.2722
1365.3546,86.3022
1366.3188,86.3052
1367.2831,86.2896
1368.2473,86.2636
1369.2115,86.2285
1370.1758,86.1812
1371.1400,86.1194
1372.1042,86.049
1373.0685,85.9871
1374.0327,85.9563
1374.9969,85.968
1375.9612,86.0135
1376.9254,86.0759
1377.8896,86.1477
1378.8539,86.2331
1379.8181,86.3368
1380.7823,86.4544
1381.7466,86.574
1382.7108,86.6878
1383.6750,86.802
1384.6393,86.9371
1385.6035,87.1133
1386.5677,87.324
1387.5320,87.513
1388.4962,87.5956
1389.4604,87.5205
1390.4247,87.2997
1391.3889,86.9887
1392.3531,86.6618
1393.3174,86.401
1394.2816,86.2793
1395.2458,86.32
1396.2101,86.4628
1397.1743,86.5925
1398.1385,86.6133
1399.1028,86.4964
1400.0670,86.2695
1401.0313,85.9799
1401.9955,85.6669
1402.9597,85.3549
1403.9240,85.0605
1404.8882,84.7985
1405.8524,84.5785
1406.8167,84.3984
1407.7809,84.2474
1408.7451,84.1152
1409.7094,83.9964
1410.6736,83.887
1411.6378,83.7796
1412.6021,83.6652
1413.5663,83.5379
1414.5305,83.3971
1415.4948,83.2413
1416.4590,83.0652
1417.4232,82.8675
1418.3875,82.6582
1419.3517,82.4411
1420.3159,82.2008
1421.2802,81.9288
1422.2444,81.6428
1423.2086,81.3721
1424.1729,81.1394
1425.1371,80.9535
1426.1013,80.814
1427.0656,80.7199
1428.0298,80.6756
1428.9940,80.6876
1429.9583,80.753
1430.9225,80.8534
1431.8867,80.9683
1432.8510,81.09
1433.8152,81.2226
1434.7794,81.3685
1435.7437,81.5133
1436.7079,81.6134
1437.6721,81.6048
1438.6364,81.452
1439.6006,81.1771
1440.5648,80.8289
1441.5291,80.4455
1442.4933,80.0433
1443.4575,79.6245
1444.4218,79.1866
1445.3860,78.7267
1446.3502,78.2467
1447.3145,77.7573
1448.2787,77.2784
1449.2429,76.8307
1450.2072,76.429
1451.1714,76.0844
1452.1356,75.8066
1453.0999,75.597
1454.0641,75.4381
1455.0283,75.3041
1455.9926,75.2128
1456.9568,75.2489
1457.9210,75.3926
1458.8853,75.4691
1459.8495,75.4149
1460.8137,75.3165
1461.7780,75.2891
1462.7422,75.4343
1463.7064,75.837
1464.6707,76.5178
1465.6349,77.3641
1466.5991,78.1947
1467.5634,78.9171
1468.5276,79.5663
1469.4918,80.2329
1470.4561,81.0082
1471.4203,81.9679
1472.3845,83.1268
1473.3488,84.3459
1474.3130,85.3718
1475.2772,86.0619
1476.2415,86.4531
1477.2057,86.6438
1478.1699,86.7134
1479.1342,86.7177
1480.0984,86.7041
1481.0626,86.7138
1482.0269,86.7696
1482.9911,86.8667
1483.9553,86.9794
1484.9196,87.0761
1485.8838,87.1285
1486.8480,87.121
1487.8123,87.0702
1488.7765,87.0333
1489.7407,87.0433
1490.7050,87.0505
1491.6692,86.9924
1492.6334,86.862
1493.5977,86.6803
1494.5619,86.4551
1495.5261,86.1785
1496.4904,85.8575
1497.4546,85.5302
1498.4188,85.2248
1499.3831,84.9298
1500.3473,84.6402
1501.3115,84.3856
1502.2758,84.1995
1503.2400,84.0747
1504.2042,83.9274
1505.1685,83.5904
1506.1327,82.9407
1507.0969,82.1772
1508.0612,81.6395
1509.0254,81.2862
1509.9896,80.9462
1510.9539,80.5853
1511.9181,80.2425
1512.8823,79.9782
1513.8466,79.8733
1514.8108,80.0191
1515.7750,80.4706
1516.7393,81.2055
1517.7035,82.1591
1518.6677,83.3167
1519.6320,84.745
1520.5962,86.4813
1521.5604,88.3771
1522.5247,90.1423
1523.4889,91.5963
1524.4531,92.7915
1525.4174,93.8832
1526.3816,94.9487
1527.3458,95.9375
1528.3101,96.7597
1529.2743,97.3872
1530.2385,97.8713
1531.2028,98.3016
1532.1670,98.7538
1533.1312,99.2367
1534.0955,99.6804
1535.0597,100.016
1536.0239,100.246
1536.9882,100.406
1537.9524,100.479
1538.9166,100.386
1539.8809,100.136
1540.8451,99.9935
1541.8093,100.143
1542.7736,100.405
1543.7378,100.606
1544.7020,100.719
1545.6663,100.757
1546.6305,100.728
1547.5947,100.646
1548.5590,100.534
1549.5232,100.408
1550.4874,100.269
1551.4517,100.109
1552.4159,99.9263
1553.3801,99.7463
1554.3444,99.605
1555.3086,99.515
1556.2728,99.4358
1557.2371,99.3125
1558.2013,99.2419
1559.1655,99.2477
1560.1298,99.1156
1561.0940,98.7264
1562.0582,98.2147
1563.0225,97.7323
1563.9867,97.3481
1564.9509,97.0614
1565.9152,96.8297
1566.8794,96.5912
1567.8436,96.2928
1568.8079,95.9239
1569.7721,95.5204
1570.7363,95.1305
1571.7006,94.7823
1572.6648,94.4706
1573.6290,94.146
1574.5933,93.7282
1575.5575,93.1753
1576.5217,92.5562
1577.4860,91.979
1578.4502,91.4676
1579.4144,90.9867
1580.3787,90.5054
1581.3429,90.0049
1582.3071,89.4764
1583.2714,88.9258
1584.2356,88.3706
1585.1998,87.8253
1586.1641,87.294
1587.1283,86.7756
1588.0925,86.2731
1589.0568,85.7942
1590.0210,85.3452
1590.9852,84.9265
1591.9495,84.5361
1592.9137,84.1763
1593.8779,83.8552
1594.8422,83.5798
1595.8064,83.3478
1596.7706,83.1459
1597.7349,82.9584
1598.6991,82.776
1599.6633,82.5998
1600.6276,82.438
1601.5918,82.3011
1602.5560,82.1941
1603.5203,82.1134
1604.4845,82.0493
1605.4487,81.9949
1606.4130,81.9541
1607.3772,81.9444
1608.3414,81.9868
1609.3057,82.0879
1610.2699,82.2305
1611.2341,82.3913
1612.1984,82.5674
1613.1626,82.7834
1614.1268,83.0883
1615.0911,83.5443
1616.0553,84.1725
1617.0195,84.8616
1617.9838,85.424
1618.9480,85.7904
1619.9122,86.0439
1620.8765,86.305
1621.8407,86.6488
1622.8049,87.0789
1623.7692,87.5351
1624.7334,87.941
1625.6976,88.2678
1626.6619,88.5417
1627.6261,88.7957
1628.5903,89.0325
1629.5546,89.2356
1630.5188,89.4032
1631.4830,89.5556
1632.4473,89.7076
1633.4115,89.8434
1634.3757,89.9381
1635.3400,90.0177
1636.3042,90.1299
1637.2684,90.2306
1638.2327,90.2521
1639.1969,90.2074
1640.1611,90.1508
1641.1254,90.1232
1642.0896,90.1363
1643.0538,90.1688
1644.0181,90.1654
1644.9823,90.0648
1645.9465,89.8747
1646.9108,89.6979
1647.8750,89.6225
1648.8392,89.6638
1649.8035,89.809
1650.7677,90.0104
1651.7319,90.1644
1652.6962,90.1909
1653.6604,90.1125
1654.6246,89.9045
1655.5889,89.541
1656.5531,89.1289
1657.5173,88.7865
1658.4816,88.5548
1659.4458,88.4041
1660.4100,88.2733
1661.3743,88.1166
1662.3385,87.9313
1663.3027,87.7377
1664.2670,87.5517
1665.2312,87.3802
1666.1954,87.2172
1667.1597,87.0369
1668.1239,86.8146
1669.0881,86.5684
1670.0524,86.3596
1671.0166,86.2272
1671.9808,86.1587
1672.9451,86.1257
1673.9093,86.098
1674.8735,86.0348
1675.8378,85.8923
1676.8020,85.6547
1677.7662,85.3586
1678.7305,85.0765
1679.6947,84.8708
1680.6589,84.7543
1681.6232,84.6805
1682.5874,84.5789
1683.5516,84.4263
1684.5159,84.2362
1685.4801,83.9789
1686.4443,83.6338
1687.4086,83.2427
1688.3728,82.8643
1689.3370,82.5374
1690.3013,82.2764
1691.2655,82.0733
1692.2297,81.897
1693.1940,81.6958
1694.1582,81.414
1695.1224,81.0274
1696.0867,80.5831
1697.0509,80.1961
1698.0151,79.9639
1698.9794,79.8598
1699.9436,79.7429
1700.9078,79.4974
1701.8721,79.1293
1702.8363,78.7305
1703.8005,78.3988
1704.7648,78.1918
1705.7290,78.1157
1706.6932,78.1316
1707.6575,78.1805
1708.6217,78.2207
1709.5859,78.2468
1710.5502,78.276
1711.5144,78.3249
1712.4786,78.3981
1713.4429,78.4946
1714.4071,78.6331
1715.3713,78.8871
1716.3356,79.3614
1717.2998,80.025
1718.2640,80.6392
1719.2283,81.0234
1720.1925,81.2174
1721.1567,81.3584
1722.1210,81.552
1723.0852,81.8347
1724.0494,82.1842
1725.0137,82.5504
1725.9779,82.8889
1726.9421,83.1838
1727.9064,83.4481
1728.8706,83.7099
1729.8348,84.0004
1730.7991,84.3511
1731.7633,84.7991
1732.7275,85.3681
1733.6918,85.9948
1734.6560,86.5117
1735.6202,86.8118
1736.5845,86.9563
1737.5487,87.0822
1738.5129,87.2902
1739.4772,87.6051
1740.4414,87.985
1741.4056,88.358
1742.3699,88.6732
1743.3341,88.9295
1744.2983,89.1594
1745.2626,89.3968
1746.2268,89.6628
1747.1910,89.9783
1748.1553,90.3767
1749.1195,90.8802
1750.0837,91.4402
1751.0480,91.9383
1752.0122,92.2871
1752.9764,92.4963
1753.9407,92.6361
1754.9049,92.7751
1755.8691,92.9473
1756.8334,93.1513
1757.7976,93.3685
1758.7618,93.5857
1759.7261,93.8054
1760.6903,94.037
1761.6545,94.2781
1762.6188,94.508
1763.5830,94.705
1764.5472,94.8679
1765.5115,95.0142
1766.4757,95.1614
1767.4399,95.3116
1768.4042,95.4534
1769.3684,95.5795
1770.3326,95.711
1771.2969,95.8987
1772.2611,96.1734
1773.2253,96.4888
1774.1896,96.7614
1775.1538,96.9589
1776.1180,97.1133
1777.0823,97.2735
1778.0465,97.4668
1779.0107,97.6919
1779.9750,97.9302
1780.9392,98.1624
1781.9034,98.3784
1782.8677,98.5748
1783.8319,98.7454
1784.7961,98.8782
1785.7604,98.9655
1786.7246,99.0163
1787.6888,99.0541
1788.6531,99.0999
1789.6173,99.1571
1790.5815,99.2164
1791.5458,99.2741
1792.5100,99.3305
1793.4742,99.3702
1794.4385,99.3778
1795.4027,99.3679
1796.3669,99.3731
1797.3312,99.4142
1798.2954,99.4898
1799.2596,99.5855
1800.2239,99.6857
1801.1881,99.7779
1802.1523,99.8524
1803.1166,99.9052
1804.0808,99.9399
1805.0450,99.9635
1806.0093,99.9808
1806.9735,99.9935
1807.9377,100.003
1808.9020,100.016
1809.8662,100.053
1810.8304,100.117
1811.7947,100.194
1812.7589,100.273
1813.7231,100.343
1814.6874,100.402
1815.6516,100.453
1816.6158,100.493
1817.5801,100.522
1818.5443,100.542
1819.5085,100.555
1820.4728,100.571
1821.4370,100.594
1822.4012,100.624
1823.3655,100.654
1824.3297,100.674
1825.2939,100.677
1826.2582,100.661
1827.2224,100.638
1828.1866,100.625
1829.1509,100.642
1830.1151,100.69
1831.0793,100.743
1832.0436,100.772
1833.0078,100.772
1833.9720,100.759
1834.9363,100.749
1835.9005,100.748
1836.8647,100.754
1837.8290,100.763
1838.7932,100.781
1839.7574,100.815
1840.7217,100.87
1841.6859,100.929
1842.6501,100.971
1843.6144,100.981
1844.5786,100.965
1845.5428,100.936
1846.5071,100.899
1847.4713,100.871
1848.4355,100.865
1849.3998,100.884
1850.3640,100.918
1851.3282,100.95
1852.2925,100.97
1853.2567,100.976
1854.2209,100.974
1855.1852,100.966
1856.1494,100.955
1857.1136,100.942
1858.0779,100.931
1859.0421,100.924
1860.0063,100.925
1860.9706,100.926
1861.9348,100.919
1862.8990,100.896
1863.8633,100.857
1864.8275,100.807
1865.7917,100.755
1866.7560,100.715
1867.7202,100.717
1868.6844,100.776
1869.6487,100.868
1870.6129,100.945
1871.5771,100.981
1872.5414,100.986
1873.5056,100.981
1874.4698,100.977
1875.4341,100.976
1876.3983,100.975
1877.3625,100.971
1878.3268,100.966
1879.2910,100.963
1880.2552,100.962
1881.2195,100.96
1882.1837,100.954
1883.1479,100.941
1884.1122,100.924
1885.0764,100.908
1886.0406,100.896
1887.0049,100.892
1887.9691,100.893
1888.9333,100.897
1889.8976,100.899
1890.8618,100.891
1891.8260,100.874
1892.7903,100.852
1893.7545,100.834
1894.7188,100.827
1895.6830,100.832
1896.6472,100.846
1897.6115,100.86
1898.5757,100.869
1899.5399,100.869
1900.5042,100.863
1901.4684,100.854
1902.4326,100.843
1903.3969,100.83
1904.3611,100.811
1905.3253,100.783
1906.2896,100.749
1907.2538,100.714
1908.2180,100.688
1909.1823,100.68
1910.1465,100.69
1911.1107,100.708
1912.0750,100.724
1913.0392,100.736
1914.0034,100.745
1914.9677,100.755
1915.9319,100.763
1916.8961,100.765
1917.8604,100.752
1918.8246,100.718
1919.7888,100.669
1920.7531,100.616
1921.7173,100.579
1922.6815,100.569
1923.6458,100.585
1924.6100,100.614
1925.5742,100.639
1926.5385,100.651
1927.5027,100.651
1928.4669,100.644
1929.4312,100.633
1930.3954,100.623
1931.3596,100.614
1932.3239,100.609
1933.2881,100.609
1934.2523,100.614
1935.2166,100.62
1936.1808,100.623
1937.1450,100.617
1938.1093,100.603
1939.0735,100.58
1940.0377,100.552
1941.0020,100.522
1941.9662,100.5
1942.9304,100.49
1943.8947,100.492
1944.8589,100.503
1945.8231,100.52
1946.7874,100.54
1947.7516,100.562
1948.7158,100.582
1949.6801,100.596
1950.6443,100.6
1951.6085,100.596
1952.5728,100.589
1953.5370,100.586
1954.5012,100.588
1955.4655,100.594
1956.4297,100.603
1957.3939,100.611
1958.3582,100.617
1959.3224,100.621
1960.2866,100.622
1961.2509,100.619
1962.2151,100.612
1963.1793,100.599
1964.1436,100.585
1965.1078,100.573
1966.0720,100.57
1967.0363,100.58
1968.0005,100.601
1968.9647,100.625
1969.9290,100.644
1970.8932,100.655
1971.8574,100.659
1972.8217,100.659
1973.7859,100.658
1974.7501,100.658
1975.7144,100.66
1976.6786,100.661
1977.6428,100.662
1978.6071,100.663
1979.5713,100.662
1980.5355,100.661
1981.4998,100.659
1982.4640,100.655
1983.4282,100.649
1984.3925,100.639
1985.3567,100.627
1986.3209,100.612
1987.2852,100.596
1988.2494,100.581
1989.2136,100.57
1990.1779,100.564
1991.1421,100.565
1992.1063,100.573
1993.0706,100.586
1994.0348,100.597
1994.9990,100.603
1995.9633,100.604
1996.9275,100.601
1997.8917,100.596
1998.8560,100.592
1999.8202,100.588
2000.7844,100.586
2001.7487,100.585
2002.7129,100.584
2003.6771,100.58
2004.6414,100.574
2005.6056,100.564
2006.5698,100.554
2007.5341,100.543
2008.4983,100.536
2009.4625,100.53
2010.4268,100.526
2011.3910,100.521
2012.3552,100.511
2013.3195,100.497
2014.2837,100.478
2015.2479,100.459
2016.2122,100.444
2017.1764,100.438
2018.1406,100.44
2019.1049,100.446
2020.0691,100.451
2021.0333,100.453
2021.9976,100.451
2022.9618,100.448
2023.9260,100.445
2024.8903,100.442
2025.8545,100.439
2026.8187,100.434
2027.7830,100.427
2028.7472,100.416
2029.7114,100.405
2030.6757,100.394
2031.6399,100.386
2032.6041,100.38
2033.5684,100.376
2034.5326,100.373
2035.4968,100.369
2036.4611,100.362
2037.4253,100.353
2038.3895,100.34
2039.3538,100.325
2040.3180,100.312
2041.2822,100.303
2042.2465,100.297
2043.2107,100.295
2044.1749,100.293
2045.1392,100.29
2046.1034,100.284
2047.0676,100.277
2048.0320,100.269
2048.9961,100.262
2049.9604,100.255
2050.9246,100.249
2051.8889,100.243
2052.8530,100.238
2053.8174,100.232
2054.7815,100.227
2055.7458,100.222
2056.7100,100.216
2057.6743,100.209
2058.6384,100.2
2059.6028,100.187
2060.5669,100.17
2061.5313,100.152
2062.4954,100.135
2063.4597,100.125
2064.4238,100.124
2065.3882,100.133
2066.3523,100.147
2067.3167,100.161
2068.2808,100.171
2069.2451,100.175
2070.2092,100.175
2071.1736,100.173
2072.1377,100.17
2073.1021,100.168
2074.0662,100.167
2075.0305,100.167
2075.9946,100.166
2076.9590,100.165
2077.9231,100.164
2078.8875,100.161
2079.8516,100.156
2080.8159,100.151
2081.7800,100.145
2082.7444,100.14
2083.7085,100.139
2084.6729,100.14
2085.6370,100.144
2086.6013,100.148
2087.5654,100.151
2088.5298,100.151
2089.4939,100.147
2090.4583,100.141
2091.4224,100.133
2092.3867,100.126
2093.3508,100.121
2094.3152,100.118
2095.2793,100.117
2096.2437,100.117
2097.2078,100.117
2098.1721,100.116
2099.1362,100.113
2100.1006,100.108
2101.0647,100.104
2102.0291,100.1
2102.9932,100.097
2103.9575,100.096
2104.9216,100.095
2105.8860,100.092
2106.8501,100.088
2107.8145,100.08
2108.7786,100.07
2109.7429,100.059
2110.7070,100.049
2111.6714,100.042
2112.6355,100.039
2113.5999,100.04
2114.5640,100.045
2115.5283,100.049
2116.4924,100.051
2117.4568,100.049
2118.4209,100.044
2119.3853,100.037
2120.3494,100.031
2121.3137,100.026
2122.2778,100.023
2123.2422,100.021
2124.2063,100.02
2125.1707,100.017
2126.1348,100.015
2127.0991,100.014
2128.0632,100.014
2129.0276,100.016
2129.9917,100.017
2130.9561,100.018
2131.9202,100.015
2132.8845,100.01
2133.8486,100.005
2134.8130,100.001
2135.7771,100.001
2136.7415,100.007
2137.7056,100.018
2138.6699,100.031
2139.6340,100.041
2140.5984,100.048
2141.5625,100.05
2142.5269,100.049
2143.4910,100.049
2144.4553,100.051
2145.4194,100.057
2146.3838,100.065
2147.3479,100.072
2148.3123,100.074
2149.2764,100.072
2150.2407,100.067
2151.2048,100.061
2152.1692,100.057
2153.1333,100.056
2154.0977,100.059
2155.0618,100.063
2156.0261,100.067
2156.9902,100.07
2157.9546,100.072
2158.9187,100.074
2159.8831,100.077
2160.8472,100.081
2161.8115,100.087
2162.7756,100.093
2163.7400,100.097
2164.7041,100.098
2165.6685,100.097
2166.6326,100.095
2167.5969,100.092
2168.5610,100.091
2169.5254,100.091
2170.4895,100.091
2171.4539,100.09
2172.4180,100.09
2173.3823,100.09
2174.3464,100.09
2175.3108,100.09
2176.2749,100.091
2177.2393,100.091
2178.2034,100.09
2179.1677,100.089
2180.1318,100.088
2181.0962,100.085
2182.0603,100.081
2183.0247,100.077
2183.9888,100.073
2184.9531,100.069
2185.9172,100.067
2186.8816,100.068
2187.8457,100.071
2188.8101,100.075
2189.7742,100.08
2190.7385,100.084
2191.7026,100.086
2192.6670,100.087
2193.6311,100.087
2194.5955,100.087
2195.5596,100.086
2196.5239,100.086
2197.4880,100.084
2198.4524,100.081
2199.4165,100.076
2200.3809,100.07
2201.3450,100.064
2202.3093,100.059
2203.2734,100.055
2204.2378,100.053
2205.2019,100.053
2206.1663,100.054
2207.1304,100.057
2208.0947,100.06
2209.0588,100.063
2210.0232,100.063
2210.9873,100.06
2211.9517,100.052
2212.9158,100.042
2213.8801,100.032
2214.8442,100.025
2215.8086,100.022
2216.7727,100.022
2217.7371,100.023
2218.7012,100.023
2219.6655,100.019
2220.6296,100.013
2221.5940,100.007
2222.5581,100.004
2223.5225,100.003
2224.4866,100.004
2225.4509,100.004
2226.4150,99.9985
2227.3794,99.9877
2228.3435,99.9725
2229.3079,99.9559
2230.2720,99.941
2231.2363,99.9299
2232.2004,99.9226
2233.1648,99.9178
2234.1289,99.9135
2235.0933,99.9081
2236.0574,99.9011
2237.0217,99.8925
2237.9858,99.8829
2238.9502,99.8733
2239.9143,99.8646
2240.8787,99.8571
2241.8428,99.8506
2242.8071,99.844
2243.7712,99.8356
2244.7356,99.8243
2245.6997,99.8101
2246.6641,99.7943
2247.6282,99.7793
2248.5925,99.7666
2249.5566,99.7566
2250.5210,99.7478
2251.4851,99.7381
2252.4495,99.7261
2253.4136,99.7111
2254.3779,99.6942
2255.3420,99.6765
2256.3064,99.6595
2257.2705,99.6438
2258.2349,99.6295
2259.1990,99.6163
2260.1633,99.6036
2261.1274,99.5913
2262.0918,99.5791
2263.0559,99.5675
2264.0203,99.5572
2264.9844,99.5488
2265.9487,99.542
2266.9128,99.5358
2267.8772,99.5285
2268.8413,99.5191
2269.8057,99.5079
2270.7698,99.4964
2271.7341,99.4866
2272.6982,99.4798
2273.6626,99.476
2274.6267,99.4741
2275.5911,99.4733
2276.5552,99.4736
2277.5195,99.4757
2278.4836,99.48
2279.4480,99.4858
2280.4121,99.4908
2281.3765,99.4922
2282.3406,99.4874
2283.3049,99.4747
2284.2690,99.4541
2285.2334,99.4266
2286.1975,99.3941
2287.1619,99.3592
2288.1260,99.3241
2289.0903,99.2904
2290.0544,99.2584
2291.0188,99.2281
2291.9829,99.1994
2292.9473,99.1729
2293.9114,99.1504
2294.8757,99.1335
2295.8398,99.1233
2296.8042,99.1201
2297.7683,99.1237
2298.7327,99.1347
2299.6968,99.1543
2300.6611,99.1835
2301.6252,99.2213
2302.5896,99.2633
2303.5537,99.3021
2304.5181,99.3303
2305.4822,99.3439
2306.4465,99.346
2307.4106,99.3465
2308.3750,99.3586
2309.3391,99.3926
2310.3035,99.4506
2311.2676,99.5248
2312.2319,99.6014
2313.1960,99.6679
2314.1604,99.7194
2315.1245,99.7601
2316.0889,99.8008
2317.0530,99.8523
2318.0173,99.9187
2318.9814,99.9924
2319.9458,100.052
2320.9099,100.067
2321.8743,100.009
2322.8384,99.8694
2323.8027,99.669
2324.7668,99.456
2325.7312,99.2861
2326.6953,99.1999
2327.6597,99.2059
2328.6238,99.2754
2329.5881,99.3534
2330.5522,99.3819
2331.5166,99.3283
2332.4807,99.1997
2333.4451,99.0358
2334.4092,98.8851
2335.3735,98.7802
2336.3376,98.7242
2337.3020,98.6925
2338.2661,98.6477
2339.2305,98.5626
2340.1946,98.4446
2341.1589,98.3491
2342.1230,98.367
2343.0874,98.5575
2344.0515,98.8465
2345.0159,99.0437
2345.9800,99.0223
2346.9443,98.8293
2347.9084,98.6119
2348.8728,98.4967
2349.8369,98.5267
2350.8013,98.6533
2351.7654,98.7665
2352.7297,98.7611
2353.6938,98.6119
2354.6582,98.3827
2355.6223,98.1477
2356.5867,97.9299
2357.5508,97.7293
2358.5151,97.5689
2359.4792,97.4864
2360.4436,97.4936
2361.4077,97.57
2362.3721,97.7069
2363.3362,97.9003
2364.3005,98.1424
2365.2646,98.4187
2366.2290,98.7009
2367.1931,98.967
2368.1575,99.2116
2369.1216,99.4386
2370.0859,99.6479
2371.0500,99.8307
2372.0144,99.9735
2372.9785,100.065
2373.9429,100.099
2374.9070,100.076
2375.8713,100.001
2376.8354,99.8832
2377.7998,99.7369
2378.7639,99.5791
2379.7283,99.4273
2380.6924,99.2966
2381.6567,99.1967
2382.6208,99.1307
2383.5852,99.0956
2384.5493,99.0843
2385.5137,99.0886
2386.4778,99.1007
2387.4421,99.1151
2388.4063,99.1279
2389.3706,99.1372
2390.3347,99.1431
2391.2991,99.1466
2392.2632,99.1496
2393.2275,99.1541
2394.1917,99.161
2395.1560,99.1701
2396.1201,99.1805
2397.0845,99.1914
2398.0486,99.2014
2399.0129,99.2101
2399.9771,99.2169
2400.9414,99.221
2401.9055,99.2227
2402.8699,99.2233
2403.8340,99.2252
2404.7983,99.2305
2405.7625,99.2405
2406.7268,99.254
2407.6909,99.2682
2408.6553,99.2803
2409.6194,99.2884
2410.5837,99.2924
2411.5479,99.2939
2412.5122,99.2947
2413.4763,99.2965
2414.4407,99.2999
2415.4048,99.3055
2416.3691,99.3132
2417.3333,99.323
2418.2976,99.3342
2419.2617,99.3456
2420.2261,99.3554
2421.1902,99.3625
2422.1545,99.3667
2423.1187,99.3692
2424.0830,99.3719
2425.0471,99.3768
2426.0115,99.3848
2426.9756,99.3951
2427.9399,99.4063
2428.9041,99.4167
2429.8684,99.4253
2430.8325,99.4322
2431.7969,99.4376
2432.7610,99.4417
2433.7253,99.4446
2434.6895,99.4464
2435.6538,99.448
2436.6179,99.4504
2437.5823,99.4548
2438.5464,99.4617
2439.5107,99.4704
2440.4749,99.4797
2441.4392,99.4888
2442.4033,99.4978
2443.3677,99.5073
2444.3318,99.5175
2445.2961,99.5276
2446.2603,99.5357
2447.2246,99.5394
2448.1887,99.5378
2449.1531,99.5321
2450.1172,99.5253
2451.0815,99.5217
2452.0457,99.5244
2453.0100,99.534
2453.9741,99.548
2454.9385,99.5618
2455.9026,99.5706
2456.8669,99.5723
2457.8311,99.5675
2458.7954,99.5599
2459.7595,99.5535
2460.7239,99.5512
2461.6880,99.5534
2462.6523,99.5587
2463.6165,99.5651
2464.5808,99.5715
2465.5449,99.5772
2466.5093,99.5821
2467.4734,99.5856
2468.4377,99.5868
2469.4019,99.5854
2470.3662,99.5823
2471.3303,99.5795
2472.2947,99.5791
2473.2588,99.5822
2474.2231,99.5879
2475.1873,99.5943
2476.1516,99.5994
2477.1157,99.6023
2478.0801,99.6036
2479.0442,99.6049
2480.0085,99.6077
2480.9727,99.6121
2481.9370,99.6172
2482.9011,99.6211
2483.8655,99.6225
2484.8296,99.6213
2485.7939,99.6187
2486.7581,99.6165
2487.7224,99.6162
2488.6865,99.6183
2489.6509,99.6222
2490.6150,99.6267
2491.5793,99.6309
2492.5435,99.6345
2493.5078,99.638
2494.4719,99.6422
2495.4363,99.6476
2496.4004,99.6544
2497.3647,99.6618
2498.3289,99.6687
2499.2932,99.6743
2500.2573,99.6788
2501.2217,99.6827
2502.1858,99.6868
2503.1501,99.6915
2504.1143,99.6961
2505.0786,99.7
2506.0427,99.7026
2507.0071,99.7043
2507.9712,99.7058
2508.9355,99.7074
2509.8997,99.709
2510.8640,99.71
2511.8281,99.7108
2512.7925,99.7128
2513.7566,99.7186
2514.7209,99.7298
2515.6851,99.7459
2516.6494,99.7636
2517.6135,99.7783
2518.5779,99.7864
2519.5420,99.7871
2520.5063,99.7831
2521.4705,99.7786
2522.4348,99.7776
2523.3989,99.7818
2524.3633,99.7903
2525.3274,99.8004
2526.2917,99.8095
2527.2559,99.816
2528.2202,99.82
2529.1843,99.8226
2530.1487,99.8249
2531.1128,99.8278
2532.0771,99.8313
2533.0413,99.8352
2534.0056,99.8395
2534.9697,99.8445
2535.9341,99.8503
2536.8982,99.8572
2537.8625,99.8646
2538.8267,99.8713
2539.7910,99.8761
2540.7551,99.8785
2541.7195,99.8787
2542.6836,99.8786
2543.6479,99.8801
2544.6121,99.8851
2545.5764,99.8942
2546.5405,99.906
2547.5049,99.918
2548.4690,99.9277
2549.4333,99.9339
2550.3975,99.9379
2551.3618,99.9423
2552.3259,99.9496
2553.2903,99.961
2554.2544,99.975
2555.2188,99.9894
2556.1829,100.002
2557.1472,100.014
2558.1113,100.025
2559.0757,100.037
2560.0398,100.049
2561.0042,100.061
2561.9683,100.07
2562.9326,100.073
2563.8967,100.073
2564.8611,100.073
2565.8252,100.075
2566.7896,100.081
2567.7537,100.091
2568.7180,100.101
2569.6821,100.109
2570.6465,100.113
2571.6106,100.115
2572.5750,100.115
2573.5391,100.116
2574.5034,100.119
2575.4675,100.124
2576.4319,100.13
2577.3960,100.138
2578.3604,100.148
2579.3245,100.161
2580.2888,100.174
2581.2529,100.185
2582.2173,100.193
2583.1814,100.196
2584.1458,100.194
2585.1099,100.191
2586.0742,100.188
2587.0383,100.187
2588.0027,100.189
2588.9668,100.192
2589.9312,100.195
2590.8953,100.199
2591.8596,100.202
2592.8237,100.205
2593.7881,100.207
2594.7522,100.208
2595.7166,100.21
2596.6807,100.212
2597.6450,100.217
2598.6091,100.225
2599.5735,100.235
2600.5376,100.247
2601.5020,100.258
2602.4661,100.266
2603.4304,100.272
2604.3945,100.276
2605.3589,100.278
2606.3230,100.281
2607.2874,100.285
2608.2515,100.288
2609.2158,100.293
2610.1799,100.297
2611.1443,100.302
2612.1084,100.306
2613.0728,100.31
2614.0369,100.315
2615.0012,100.321
2615.9653,100.329
2616.9297,100.339
2617.8938,100.35
2618.8582,100.359
2619.8223,100.365
2620.7866,100.366
2621.7507,100.364
2622.7151,100.361
2623.6792,100.36
2624.6436,100.364
2625.6077,100.373
2626.5720,100.386
2627.5361,100.4
2628.5005,100.413
2629.4646,100.422
2630.4290,100.427
2631.3931,100.428
2632.3574,100.425
2633.3215,100.423
2634.2859,100.423
2635.2500,100.426
2636.2144,100.432
2637.1785,100.441
2638.1428,100.452
2639.1069,100.463
2640.0713,100.473
2641.0354,100.482
2641.9998,100.49
2642.9639,100.497
2643.9282,100.502
2644.8923,100.509
2645.8567,100.516
2646.8208,100.525
2647.7852,100.533
2648.7493,100.54
2649.7136,100.544
2650.6777,100.547
2651.6421,100.552
2652.6062,100.56
2653.5706,100.573
2654.5347,100.589
2655.4990,100.606
2656.4631,100.623
2657.4275,100.638
2658.3916,100.65
2659.3560,100.66
2660.3201,100.669
2661.2844,100.678
2662.2485,100.687
2663.2129,100.698
2664.1770,100.71
2665.1414,100.723
2666.1055,100.737
2667.0698,100.751
2668.0339,100.766
2668.9983,100.781
2669.9624,100.799
2670.9268,100.818
2671.8909,100.838
2672.8552,100.858
2673.8193,100.877
2674.7837,100.892
2675.7478,100.905
2676.7122,100.914
2677.6763,100.92
2678.6406,100.925
2679.6047,100.927
2680.5691,100.93
2681.5332,100.933
2682.4976,100.938
2683.4617,100.943
2684.4260,100.949
2685.3901,100.955
2686.3545,100.959
2687.3186,100.961
2688.2830,100.964
2689.2471,100.968
2690.2114,100.974
2691.1755,100.984
2692.1399,100.994
2693.1040,101.005
2694.0684,101.012
2695.0325,101.017
2695.9968,101.019
2696.9609,101.021
2697.9253,101.024
2698.8894,101.029
2699.8538,101.036
2700.8179,101.043
2701.7822,101.046
2702.7463,101.045
2703.7107,101.038
2704.6748,101.028
2705.6392,101.016
2706.6033,101.004
2707.5676,100.994
2708.5317,100.988
2709.4961,100.985
2710.4602,100.984
2711.4246,100.985
2712.3887,100.983
2713.3530,100.978
2714.3171,100.967
2715.2815,100.951
2716.2456,100.934
2717.2100,100.918
2718.1741,100.909
2719.1384,100.906
2720.1025,100.909
2721.0669,100.915
2722.0310,100.92
2722.9954,100.921
2723.9595,100.918
2724.9238,100.911
2725.8879,100.902
2726.8523,100.892
2727.8164,100.884
2728.7808,100.877
2729.7449,100.871
2730.7092,100.868
2731.6733,100.866
2732.6377,100.868
2733.6018,100.871
2734.5662,100.875
2735.5303,100.876
2736.4946,100.873
2737.4587,100.866
2738.4231,100.856
2739.3872,100.845
2740.3516,100.837
2741.3157,100.835
2742.2800,100.839
2743.2441,100.85
2744.2085,100.864
2745.1726,100.88
2746.1370,100.893
2747.1011,100.9
2748.0654,100.901
2749.0295,100.896
2749.9939,100.889
2750.9580,100.881
2751.9224,100.875
2752.8865,100.872
2753.8508,100.871
2754.8149,100.869
2755.7793,100.866
2756.7434,100.86
2757.7078,100.851
2758.6719,100.841
2759.6362,100.829
2760.6003,100.818
2761.5647,100.809
2762.5288,100.804
2763.4932,100.802
2764.4573,100.8
2765.4216,100.796
2766.3857,100.789
2767.3501,100.779
2768.3142,100.768
2769.2786,100.759
2770.2427,100.751
2771.2070,100.742
2772.1711,100.727
2773.1355,100.705
2774.0996,100.679
2775.0640,100.653
2776.0281,100.631
2776.9924,100.615
2777.9565,100.602
2778.9209,100.587
2779.8850,100.564
2780.8494,100.532
2781.8135,100.494
2782.7778,100.454
2783.7419,100.419
2784.7063,100.39
2785.6704,100.367
2786.6348,100.344
2787.5989,100.319
2788.5632,100.288
2789.5273,100.252
2790.4917,100.213
2791.4558,100.174
2792.4202,100.138
2793.3843,100.103
2794.3486,100.066
2795.3127,100.019
2796.2771,99.9647
2797.2412,99.9036
2798.2056,99.8377
2799.1697,99.7705
2800.1340,99.7045
2801.0981,99.6405
2802.0625,99.578
2803.0266,99.5158
2803.9910,99.4534
2804.9551,99.3906
2805.9194,99.3266
2806.8835,99.2596
2807.8479,99.1865
2808.8120,99.1046
2809.7764,99.0134
2810.7405,98.9143
2811.7048,98.8105
2812.6689,98.705
2813.6333,98.5984
2814.5974,98.4893
2815.5618,98.3741
2816.5259,98.2493
2817.4902,98.1124
2818.4543,97.9625
2819.4187,97.7998
2820.3828,97.6252
2821.3472,97.4388
2822.3113,97.2402
2823.2756,97.0288
2824.2397,96.804
2825.2041,96.5661
2826.1682,96.3156
2827.1326,96.0531
2828.0967,95.778
2829.0610,95.4891
2830.0251,95.1847
2830.9895,94.8646
2831.9536,94.5309
2832.9180,94.1883
2833.8821,93.8429
2834.8464,93.5005
2835.8105,93.1652
2836.7749,92.8388
2837.7390,92.522
2838.7034,92.2147
2839.6675,91.9163
2840.6318,91.6249
2841.5959,91.3363
2842.5603,91.0442
2843.5244,90.7432
2844.4888,90.4329
2845.4529,90.1223
2846.4172,89.8294
2847.3813,89.5764
2848.3457,89.3809
2849.3098,89.2474
2850.2742,89.1647
2851.2383,89.1097
2852.2026,89.0569
2853.1667,88.988
2854.1311,88.8965
2855.0952,88.7863
2856.0596,88.6654
2857.0237,88.5391
2857.9880,88.4072
2858.9521,88.265
2859.9165,88.1069
2860.8806,87.9307
2861.8450,87.7381
2862.8091,87.5349
2863.7734,87.3283
2864.7375,87.1252
2865.7019,86.9305
2866.6660,86.7466
2867.6304,86.5738
2868.5945,86.4114
2869.5588,86.2583
2870.5229,86.1138
2871.4873,85.9771
2872.4514,85.8465
2873.4158,85.7188
2874.3799,85.5897
2875.3442,85.4556
2876.3083,85.3137
2877.2727,85.1635
2878.2368,85.0056
2879.2012,84.8427
2880.1653,84.6796
2881.1296,84.5242
2882.0938,84.3869
2883.0581,84.278
2884.0222,84.2042
2884.9866,84.1653
2885.9507,84.1528
2886.9150,84.1521
2887.8792,84.1473
2888.8435,84.1269
2889.8076,84.0882
2890.7720,84.0383
2891.7361,83.9891
2892.7004,83.9479
2893.6646,83.909
2894.6289,83.8515
2895.5930,83.7475
2896.5574,83.5786
2897.5215,83.3508
2898.4858,83.0988
2899.4500,82.8732
2900.4143,82.7185
2901.3784,82.6519
2902.3428,82.6566
2903.3069,82.6924
2904.2712,82.7155
2905.2354,82.6965
2906.1997,82.6261
2907.1638,82.5105
2908.1282,82.3609
2909.0923,82.1871
2910.0566,81.9964
2911.0208,81.7962
2911.9851,81.596
2912.9492,81.4066
2913.9136,81.2373
2914.8777,81.0931
2915.8420,80.9737
2916.8062,80.8747
2917.7705,80.7888
2918.7346,80.7078
2919.6990,80.6244
2920.6631,80.5343
2921.6274,80.4379
2922.5916,80.339
2923.5559,80.243
2924.5200,80.154
2925.4844,80.0731
2926.4485,79.9995
2927.4128,79.9324
2928.3770,79.8727
2929.3413,79.8229
2930.3054,79.7862
2931.2698,79.7651
2932.2339,79.7621
2933.1982,79.78
2934.1624,79.8229
2935.1267,79.8947
2936.0908,79.997
2937.0552,80.1273
2938.0193,80.2796
2938.9836,80.4474
2939.9478,80.6267
2940.9121,80.8183
2941.8762,81.0264
2942.8406,81.255
2943.8047,81.5027
2944.7690,81.7611
2945.7332,82.0159
2946.6975,82.2521
2947.6616,82.459
2948.6260,82.6337
2949.5901,82.7803
2950.5544,82.9067
2951.5186,83.02
2952.4829,83.1244
2953.4470,83.2218
2954.4114,83.3137
2955.3755,83.4034
2956.3398,83.4961
2957.3040,83.5967
2958.2683,83.7066
2959.2324,83.8222
2960.1968,83.9355
2961.1609,84.0373
2962.1252,84.1213
2963.0894,84.1868
2964.0537,84.238
2965.0178,84.2822
2965.9822,84.327
2966.9463,84.3798
2967.9106,84.4477
2968.8748,84.538
2969.8391,84.6579
2970.8032,84.8113
2971.7676,84.9974
2972.7317,85.2094
2973.6960,85.4375
2974.6602,85.6724
2975.6245,85.9083
2976.5886,86.1437
2977.5530,86.3798
2978.5171,86.6173
2979.4814,86.8545
2980.4456,87.085
2981.4099,87.2969
2982.3740,87.4748
2983.3384,87.6055
2984.3025,87.6877
2985.2668,87.7413
2986.2310,87.8094
2987.1953,87.9464
2988.1594,88.1956
2989.1238,88.5674
2990.0879,89.0298
2991.0522,89.5204
2992.0164,89.9734
2992.9807,90.347
2993.9448,90.6372
2994.9092,90.8714
2995.8733,91.0877
2996.8376,91.3143
2997.8018,91.5606
2998.7661,91.8209
2999.7302,92.0853
3000.6946,92.3493
3001.6587,92.6157
3002.6230,92.891
3003.5872,93.1791
3004.5515,93.4793
3005.5156,93.7859
3006.4800,94.0918
3007.4441,94.3911
3008.4084,94.6814
3009.3726,94.9631
3010.3369,95.2393
3011.3010,95.5128
3012.2654,95.7847
3013.2295,96.0525
3014.1938,96.3118
3015.1580,96.5577
3016.1223,96.7885
3017.0864,97.0055
3018.0508,97.2122
3019.0149,97.4118
3019.9792,97.6048
3020.9434,97.7895
3021.9077,97.9639
3022.8718,98.1274
3023.8362,98.2817
3024.8003,98.4297
3025.7646,98.573
3026.7288,98.7111
3027.6931,98.8417
3028.6572,98.9627
3029.6216,99.0734
3030.5857,99.175
3031.5500,99.2696
3032.5142,99.3594
3033.4785,99.4457
3034.4426,99.5298
3035.4070,99.6125
3036.3711,99.694
3037.3354,99.7482
3038.2996,99.7927
3039.2639,99.8262
3040.2280,99.8446
3041.1924,99.8459
3042.1565,99.8312
3043.1208,99.8041
3044.0850,99.7698
3045.0493,99.7338
3046.0134,99.7007
3046.9778,99.6733
3047.9419,99.6509
3048.9063,99.6292
3049.8704,99.6019
3050.8347,99.5634
3051.7988,99.5118
3052.7632,99.4502
3053.7273,99.3853
3054.6917,99.3248
3055.6558,99.2735
3056.6201,99.2321
3057.5842,99.197
3058.5486,99.1619
3059.5127,99.1202
3060.4771,99.0668
3061.4412,99.0005
3062.4055,98.9244
3063.3696,98.8461
3064.3340,98.7748
3065.2981,98.7172
3066.2625,98.6742
3067.2266,98.6403
3068.1909,98.6064
3069.1550,98.5655
3070.1194,98.5155
3071.0835,98.4599
3072.0479,98.404
3073.0120,98.351
3073.9763,98.3
3074.9404,98.247
3075.9048,98.1889
3076.8689,98.1263
3077.8333,98.0633
3078.7974,98.005
3079.7617,97.9541
3080.7258,97.9085
3081.6902,97.8633
3082.6543,97.8139
3083.6187,97.7588
3084.5828,97.7
3085.5471,97.6408
3086.5112,97.5834
3087.4756,97.5271
3088.4397,97.4692
3089.4041,97.4073
3090.3682,97.3406
3091.3325,97.27
3092.2966,97.1966
3093.2610,97.1204
3094.2251,97.0401
3095.1895,96.9543
3096.1536,96.8635
3097.1179,96.7709
3098.0820,96.6815
3099.0464,96.5997
3100.0105,96.5277
3100.9749,96.4641
3101.9390,96.4053
3102.9033,96.3469
3103.8674,96.2854
3104.8318,96.219
3105.7959,96.1467
3106.7603,96.0685
3107.7244,95.9851
3108.6887,95.8983
3109.6528,95.8102
3110.6172,95.7228
3111.5813,95.6368
3112.5457,95.5514
3113.5098,95.4648
3114.4741,95.376
3115.4382,95.2856
3116.4026,95.1961
3117.3667,95.1106
3118.3311,95.0313
3119.2952,94.958
3120.2595,94.8885
3121.2236,94.8195
3122.1880,94.7478
3123.1521,94.6715
3124.1165,94.591
3125.0806,94.5076
3126.0449,94.423
3127.0090,94.3375
3127.9734,94.2506
3128.9375,94.1615
3129.9019,94.0704
3130.8660,93.9795
3131.8303,93.8913
3132.7944,93.8079
3133.7588,93.7294
3134.7229,93.6539
3135.6873,93.5788
3136.6514,93.5021
3137.6157,93.423
3138.5798,93.3412
3139.5442,93.2562
3140.5083,93.1673
3141.4727,93.0744
3142.4368,92.9786
3143.4011,92.8816
3144.3652,92.7853
3145.3296,92.6905
3146.2937,92.5973
3147.2581,92.5064
3148.2222,92.4187
3149.1865,92.3355
3150.1506,92.2561
3151.1150,92.1769
3152.0791,92.0928
3153.0435,91.9994
3154.0076,91.8959
3154.9719,91.7863
3155.9360,91.6773
3156.9004,91.5749
3157.8645,91.4819
3158.8289,91.3969
3159.7930,91.3157
3160.7573,91.2337
3161.7214,91.1479
3162.6858,91.0572
3163.6499,90.9621
3164.6143,90.8643
3165.5784,90.7658
3166.5427,90.6684
3167.5068,90.5737
3168.4712,90.4823
3169.4353,90.432
3170.3997,90.3426
3171.3638,90.2494
3172.3281,90.15
3173.2922,90.0438
3174.2566,89.9327
3175.2207,89.8209
3176.1851,89.7133
3177.1492,89.6138
3178.1135,89.5237
3179.0776,89.4408
3180.0420,89.3608
3181.0061,89.2791
3181.9705,89.1934
3182.9346,89.1041
3183.8989,89.0137
3184.8630,88.9246
3185.8274,88.8373
3186.7915,88.7504
3187.7559,88.6617
3188.7200,88.5709
3189.6843,88.4801
3190.6484,88.3927
3191.6128,88.3106
3192.5769,88.2325
3193.5413,88.1542
3194.5054,88.0709
3195.4697,87.9801
3196.4338,87.883
3197.3982,87.7838
3198.3623,87.6875
3199.3267,87.5971
3200.2908,87.5133
3201.2551,87.4345
3202.2192,87.358
3203.1836,87.2808
3204.1477,87.2004
3205.1121,87.1155
3206.0762,87.0274
3207.0405,86.9392
3208.0046,86.8548
3208.9690,86.7759
3209.9331,86.7011
3210.8975,86.6262
3211.8616,86.5467
3212.8259,86.4612
3213.7900,86.3725
3214.7544,86.2857
3215.7185,86.2056
3216.6829,86.1331
3217.6470,86.0654
3218.6113,85.9972
3219.5754,85.9236
3220.5398,85.843
3221.5039,85.7572
3222.4683,85.6706
3223.4324,85.5877
3224.3967,85.5117
3225.3608,85.4434
3226.3252,85.3821
3227.2893,85.326
3228.2537,85.2732
3229.2178,85.2216
3230.1821,85.1689
3231.1462,85.1123
3232.1106,85.0501
3233.0747,84.9822
3234.0391,84.9108
3235.0032,84.8397
3235.9675,84.7724
3236.9316,84.71
3237.8960,84.6506
3238.8601,84.5907
3239.8245,84.5269
3240.7886,84.4587
3241.7529,84.3888
3242.7170,84.322
3243.6814,84.2631
3244.6455,84.2135
3245.6099,84.1698
3246.5740,84.1251
3247.5383,84.0727
3248.5024,84.0099
3249.4668,83.9396
3250.4309,83.8688
3251.3953,83.8046
3252.3594,83.7503
3253.3237,83.704
3254.2878,83.6604
3255.2522,83.6146
3256.2163,83.5655
3257.1807,83.5155
3258.1448,83.4673
3259.1091,83.4212
3260.0732,83.3736
3261.0376,83.3196
3262.0017,83.2563
3262.9661,83.1854
3263.9302,83.1128
3264.8945,83.0452
3265.8586,82.9869
3266.8230,82.9378
3267.7871,82.8935
3268.7515,82.8484
3269.7156,82.7985
3270.6799,82.7432
3271.6440,82.6853
3272.6084,82.6296
3273.5725,82.5796
3274.5369,82.5367
3275.5010,82.4989
3276.4653,82.4632
3277.4294,82.427
3278.3938,82.3901
3279.3579,82.3538
3280.3223,82.3198
3281.2864,82.2886
3282.2507,82.2582
3283.2148,82.225
3284.1792,82.1854
3285.1433,82.1379
3286.1077,82.0837
3287.0718,82.0259
3288.0361,81.9686
3289.0002,81.9151
3289.9646,81.8669
3290.9287,81.824
3291.8931,81.7858
3292.8572,81.752
3293.8215,81.7224
3294.7856,81.6964
3295.7500,81.672
3296.7141,81.6454
3297.6785,81.6129
3298.6426,81.5721
3299.6069,81.5242
3300.5710,81.4727
3301.5354,81.4225
3302.4995,81.3769
3303.4639,81.3373
3304.4280,81.3028
3305.3923,81.2725
3306.3564,81.2457
3307.3208,81.2222
3308.2849,81.2012
3309.2493,81.1809
3310.2134,81.159
3311.1777,81.1342
3312.1418,81.1071
3313.1062,81.0797
3314.0703,81.0541
3315.0347,81.0306
3315.9988,81.0078
3316.9631,80.9832
3317.9272,80.9549
3318.8916,80.9225
3319.8557,80.8869
3320.8201,80.8498
3321.7842,80.813
3322.7485,80.7777
3323.7126,80.7443
3324.6770,80.7129
3325.6411,80.6824
3326.6055,80.6517
3327.5696,80.6202
3328.5339,80.589
3329.4980,80.5605
3330.4624,80.5375
3331.4265,80.5212
3332.3909,80.51
3333.3550,80.4999
3334.3193,80.4864
3335.2834,80.4665
3336.2478,80.4401
3337.2119,80.4097
3338.1763,80.3788
3339.1404,80.3507
3340.1047,80.3282
3341.0688,80.3124
3342.0332,80.3034
3342.9973,80.2989
3343.9617,80.2952
3344.9258,80.2881
3345.8901,80.2755
3346.8542,80.2578
3347.8186,80.2385
3348.7827,80.2212
3349.7471,80.2077
3350.7112,80.1967
3351.6755,80.1844
3352.6396,80.1671
3353.6040,80.1433
3354.5681,80.1152
3355.5325,80.0873
3356.4966,80.0654
3357.4609,80.0528
3358.4250,80.0492
3359.3894,80.0497
3360.3535,80.0468
3361.3179,80.0339
3362.2820,80.0091
3363.2463,79.9771
3364.2104,79.9475
3365.1748,79.9306
3366.1389,79.9321
3367.1033,79.9499
3368.0674,79.9759
3369.0317,80.0003
3369.9958,80.0165
3370.9602,80.0234
3371.9243,80.0236
3372.8887,80.0211
3373.8528,80.0183
3374.8171,80.0163
3375.7813,80.0154
3376.7456,80.0166
3377.7097,80.0209
3378.6741,80.0287
3379.6382,80.0383
3380.6025,80.0472
3381.5667,80.0534
3382.5310,80.0571
3383.4951,80.0607
3384.4595,80.0668
3385.4236,80.0766
3386.3879,80.0892
3387.3521,80.1028
3388.3164,80.1171
3389.2805,80.1334
3390.2449,80.153
3391.2090,80.1757
3392.1733,80.1986
3393.1375,80.2187
3394.1018,80.2359
3395.0659,80.2547
3396.0303,80.2815
3396.9944,80.3199
3397.9587,80.367
3398.9229,80.4143
3399.8872,80.4527
3400.8513,80.4781
3401.8157,80.4937
3402.7798,80.5074
3403.7441,80.5262
3404.7083,80.553
3405.6726,80.5864
3406.6367,80.623
3407.6011,80.6603
3408.5652,80.6978
3409.5295,80.7353
3410.4937,80.772
3411.4580,80.8063
3412.4221,80.8372
3413.3865,80.8653
3414.3506,80.8924
3415.3149,80.9211
3416.2791,80.9528
3417.2434,80.9886
3418.2075,81.0301
3419.1719,81.0798
3420.1360,81.1394
3421.1003,81.2071
3422.0645,81.2767
3423.0288,81.3401
3423.9929,81.3916
3424.9573,81.4317
3425.9214,81.4677
3426.8857,81.5097
3427.8499,81.566
3428.8142,81.6377
3429.7783,81.7185
3430.7427,81.7987
3431.7068,81.8707
3432.6711,81.9331
3433.6353,81.9898
3434.5996,82.0464
3435.5637,82.1056
3436.5281,82.1661
3437.4922,82.2245
3438.4565,82.2786
3439.4207,82.3288
3440.3850,82.3774
3441.3491,82.4265
3442.3135,82.4767
3443.2776,82.528
3444.2419,82.5811
3445.2061,82.6392
3446.1704,82.7061
3447.1345,82.7833
3448.0989,82.868
3449.0630,82.9552
3450.0273,83.041
3450.9915,83.1239
3451.9558,83.2044
3452.9199,83.2822
3453.8843,83.3556
3454.8484,83.4222
3455.8127,83.4813
3456.7769,83.535
3457.7412,83.5886
3458.7053,83.6473
3459.6697,83.7146
3460.6338,83.7897
3461.5981,83.8689
3462.5623,83.9481
3463.5266,84.0257
3464.4907,84.1038
3465.4551,84.1862
3466.4192,84.2751
3467.3835,84.368
3468.3477,84.4582
3469.3120,84.5382
3470.2761,84.6057
3471.2405,84.6657
3472.2046,84.7291
3473.1689,84.8067
3474.1331,84.9023
3475.0974,85.0095
3476.0615,85.1148
3477.0259,85.205
3477.9900,85.2751
3478.9543,85.3296
3479.9185,85.3804
3480.8828,85.4402
3481.8469,85.5159
3482.8113,85.6062
3483.7754,85.7052
3484.7397,85.8074
3485.7039,85.9108
3486.6682,86.0159
3487.6323,86.1227
3488.5967,86.2286
3489.5608,86.3279
3490.5251,86.4155
3491.4893,86.4901
3492.4536,86.5561
3493.4177,86.6225
3494.3821,86.6988
3495.3462,86.7892
3496.3105,86.8888
3497.2747,86.9863
3498.2390,87.0713
3499.2031,87.1419
3500.1675,87.207
3501.1316,87.2831
3502.0959,87.3854
3503.0601,87.5161
3504.0244,87.6614
3504.9885,87.802
3505.9529,87.9267
3506.9170,88.0365
3507.8813,88.1402
3508.8455,88.2472
3509.8098,88.3623
3510.7739,88.4837
3511.7383,88.6065
3512.7024,88.7277
3513.6667,88.8481
3514.6309,88.9685
3515.5952,89.0873
3516.5593,89.1991
3517.5237,89.298
3518.4878,89.382
3519.4521,89.4546
3520.4163,89.5242
3521.3806,89.6001
3522.3447,89.6877
3523.3091,89.7871
3524.2732,89.8948
3525.2375,90.0087
3526.2017,90.1319
3527.1660,90.2703
3528.1301,90.4263
3529.0945,90.5931
3530.0586,90.7569
3531.0229,90.9062
3531.9871,91.0381
3532.9514,91.1588
3533.9155,91.2788
3534.8799,91.407
3535.8440,91.5453
3536.8083,91.6868
3537.7725,91.819
3538.7368,91.9315
3539.7009,92.0217
3540.6653,92.0955
3541.6294,92.165
3542.5938,92.2465
3543.5579,92.3576
3544.5222,92.5095
3545.4863,92.6958
3546.4507,92.891
3547.4148,93.0677
3548.3792,93.2164
3549.3433,93.3466
3550.3076,93.4761
3551.2717,93.6182
3552.2361,93.7747
3553.2002,93.9354
3554.1646,94.0865
3555.1287,94.2211
3556.0930,94.3419
3557.0571,94.4553
3558.0215,94.5635
3558.9856,94.6626
3559.9500,94.7453
3560.9141,94.8078
3561.8784,94.8528
3562.8425,94.8886
3563.8069,94.9282
3564.7710,94.997
3565.7354,95.1381
3566.6995,95.3781
3567.6638,95.6723
3568.6279,95.9312
3569.5923,96.1076
3570.5564,96.2176
3571.5208,96.2985
3572.4849,96.3752
3573.4492,96.4553
3574.4133,96.5377
3575.3777,96.6221
3576.3418,96.7114
3577.3062,96.8084
3578.2703,96.9108
3579.2346,97.0105
3580.1987,97.0981
3581.1631,97.1701
3582.1272,97.2321
3583.0916,97.2937
3584.0557,97.3625
3585.0200,97.4445
3585.9841,97.5515
3586.9485,97.6903
3587.9126,97.8321
3588.8770,97.9255
3589.8411,97.9507
3590.8054,97.9329
3591.7695,97.9098
3592.7339,97.9053
3593.6980,97.9257
3594.6624,97.9637
3595.6265,98.006
3596.5908,98.045
3597.5549,98.0892
3598.5193,98.1595
3599.4834,98.2721
3600.4478,98.4214
3601.4119,98.5807
3602.3762,98.7221
3603.3403,98.8356
3604.3047,98.9296
3605.2688,99.0188
3606.2332,99.1158
3607.1973,99.2255
3608.1616,99.338
3609.1257,99.4287
3610.0901,99.476
3611.0542,99.478
3612.0186,99.4539
3612.9829,99.4306
3613.9470,99.4284
3614.9114,99.4547
3615.8755,99.5056
3616.8398,99.5729
3617.8040,99.6511
3618.7683,99.7338
3619.7324,99.8009
3620.6968,99.8218
3621.6609,99.7907
3622.6252,99.7434
3623.5894,99.7316
3624.5537,99.7859
3625.5178,99.8979
3626.4822,100.032
3627.4463,100.162
3628.4106,100.289
3629.3748,100.384
3630.3391,100.395
3631.3032,100.325
3632.2676,100.237
3633.2317,100.19
3634.1960,100.201
3635.1602,100.256
3636.1245,100.324
3637.0886,100.383
3638.0530,100.421
3639.0171,100.438
3639.9814,100.433
3640.9456,100.41
3641.9099,100.361
3642.8740,100.304
3643.8384,100.26
3644.8025,100.221
3645.7668,100.149
3646.7310,100.012
3647.6953,99.8744
3648.6594,99.9064
3649.6238,100.116
3650.5879,100.291
3651.5522,100.314
3652.5164,100.24
3653.4807,100.147
3654.4448,100.072
3655.4092,100.011
3656.3733,99.9487
3657.3376,99.8788
3658.3018,99.8067
3659.2661,99.7492
3660.2302,99.7214
3661.1946,99.7224
3662.1587,99.7359
3663.1230,99.7451
3664.0872,99.7477
3665.0515,99.7521
3666.0156,99.7613
3666.9800,99.7618
3667.9441,99.7405
3668.9084,99.7116
3669.8726,99.703
3670.8369,99.7129
3671.8010,99.7152
3672.7654,99.6884
3673.7295,99.6304
3674.6938,99.5785
3675.6580,99.5956
3676.6223,99.6834
3677.5864,99.7737
3678.5508,99.822
3679.5149,99.8346
3680.4792,99.8276
3681.4434,99.8068
3682.4077,99.7776
3683.3718,99.7554
3684.3362,99.7569
3685.3003,99.7789
3686.2646,99.786
3687.2288,99.7347
3688.1931,99.6336
3689.1572,99.563
3690.1216,99.5778
3691.0857,99.6453
3692.0500,99.7167
3693.0142,99.7791
3693.9785,99.8388
3694.9426,99.9012
3695.9070,99.9673
3696.8711,100.038
3697.8354,100.114
3698.7996,100.193
3699.7639,100.273
3700.7280,100.349
3701.6924,100.416
3702.6565,100.462
3703.6208,100.479
3704.5850,100.474
3705.5493,100.462
3706.5134,100.449
3707.4778,100.43
3708.4419,100.399
3709.4063,100.394
3710.3704,100.493
3711.3347,100.719
3712.2988,100.963
3713.2632,101.101
3714.2273,101.112
3715.1917,101.044
3716.1558,100.95
3717.1201,100.855
3718.0842,100.762
3719.0486,100.663
3720.0127,100.557
3720.9771,100.454
3721.9412,100.368
3722.9055,100.312
3723.8696,100.292
3724.8340,100.302
3725.7981,100.325
3726.7625,100.344
3727.7266,100.354
3728.6909,100.358
3729.6550,100.357
3730.6194,100.332
3731.5835,100.256
3732.5479,100.123
3733.5120,99.9917
3734.4763,99.9618
3735.4404,100.056
3736.4048,100.167
3737.3689,100.203
3738.3333,100.186
3739.2974,100.201
3740.2617,100.317
3741.2258,100.562
3742.1902,100.82
3743.1543,100.972
3744.1187,100.935
3745.0828,100.731
3746.0471,100.451
3747.0112,100.194
3747.9756,100.024
3748.9397,99.965
3749.9041,100.034
3750.8682,100.208
3751.8325,100.364
3752.7966,100.389
3753.7610,100.293
3754.7251,100.16
3755.6895,100.054
3756.6536,100.003
3757.6179,100.007
3758.5820,100.058
3759.5464,100.13
3760.5105,100.192
3761.4749,100.229
3762.4390,100.245
3763.4033,100.253
3764.3674,100.258
3765.3318,100.263
3766.2959,100.269
3767.2603,100.277
3768.2244,100.291
3769.1887,100.313
3770.1528,100.337
3771.1172,100.349
3772.0813,100.337
3773.0457,100.305
3774.0098,100.268
3774.9741,100.239
3775.9382,100.221
3776.9026,100.212
3777.8667,100.213
3778.8311,100.221
3779.7952,100.224
3780.7595,100.204
3781.7236,100.159
3782.6880,100.102
3783.6521,100.057
3784.6165,100.046
3785.5806,100.075
3786.5449,100.133
3787.5090,100.198
3788.4734,100.256
3789.4375,100.298
3790.4019,100.329
3791.3660,100.347
3792.3303,100.346
3793.2944,100.311
3794.2588,100.239
3795.2229,100.142
3796.1873,100.053
3797.1514,100.001
3798.1157,99.9917
3799.0798,100.008
3800.0442,100.027
3801.0083,100.04
3801.9727,100.047
3802.9368,100.053
3803.9011,100.074
3804.8652,100.126
3805.8296,100.207
3806.7937,100.288
3807.7581,100.327
3808.7222,100.304
3809.6865,100.246
3810.6506,100.207
3811.6150,100.222
3812.5791,100.278
3813.5435,100.322
3814.5076,100.298
3815.4719,100.2
3816.4360,100.066
3817.4004,99.9464
3818.3645,99.8759
3819.3289,99.8706
3820.2930,99.9231
3821.2573,99.9915
3822.2214,100.017
3823.1858,99.976
3824.1499,99.9007
3825.1143,99.8427
3826.0784,99.8357
3827.0427,99.8826
3828.0068,99.9617
3828.9712,100.043
3829.9353,100.103
3830.8997,100.134
3831.8638,100.143
3832.8281,100.141
3833.7922,100.131
3834.7566,100.101
3835.7207,100.035
3836.6851,99.9295
3837.6492,99.8149
3838.6135,99.7379
3839.5776,99.725
3840.5420,99.7713
3841.5061,99.8568
3842.4705,99.9549
3843.4346,100.032
3844.3989,100.056
3845.3630,100.016
3846.3274,99.9403
3847.2915,99.8839
3848.2559,99.9053
3849.2200,100.033
3850.1843,100.242
3851.1484,100.466
3852.1128,100.649
3853.0769,100.783
3854.0413,100.814
3855.0054,100.671
3855.9697,100.412
3856.9338,100.166
3857.8982,100.016
3858.8623,99.9716
3859.8267,99.99
3860.7908,100.01
3861.7551,99.9988
3862.7192,99.9705
3863.6836,99.9666
3864.6477,100.006
3865.6121,100.071
3866.5762,100.131
3867.5405,100.157
3868.5046,100.136
3869.4690,100.082
3870.4331,100.029
3871.3975,100.003
3872.3616,100.004
3873.3259,100.017
3874.2900,100.033
3875.2544,100.053
3876.2185,100.078
3877.1829,100.103
3878.1470,100.112
3879.1113,100.096
3880.0754,100.065
3881.0398,100.048
3882.0039,100.068
3882.9683,100.13
3883.9324,100.215
3884.8967,100.289
3885.8608,100.319
3886.8252,100.293
3887.7893,100.225
3888.7537,100.142
3889.7178,100.065
3890.6821,100.009
3891.6462,99.9824
3892.6106,99.979
3893.5747,99.9834
3894.5391,99.9928
3895.5032,100.015
3896.4675,100.051
3897.4316,100.082
3898.3960,100.094
3899.3601,100.082
3900.3245,100.06
3901.2886,100.038
3902.2529,100.023
3903.2170,100.021
3904.1814,100.03
3905.1455,100.04
3906.1099,100.042
3907.0740,100.04
3908.0383,100.04
3909.0024,100.044
3909.9668,100.05
3910.9309,100.055
3911.8953,100.058
3912.8594,100.065
3913.8237,100.078
3914.7878,100.094
3915.7522,100.107
3916.7163,100.112
3917.6807,100.102
3918.6448,100.076
3919.6091,100.035
3920.5732,99.9881
3921.5376,99.9458
3922.5017,99.9157
3923.4661,99.8979
3924.4302,99.8861
3925.3945,99.8719
3926.3586,99.8504
3927.3230,99.8247
3928.2871,99.8031
3929.2515,99.7942
3930.2156,99.8053
3931.1799,99.8408
3932.1440,99.8962
3933.1084,99.9561
3934.0725,100.004
3935.0369,100.031
3936.0010,100.037
3936.9653,100.026
3937.9294,99.9999
3938.8938,99.9621
3939.8579,99.9199
3940.8223,99.8848
3941.7864,99.868
3942.7507,99.8721
3943.7148,99.8877
3944.6792,99.8997
3945.6433,99.8969
3946.6077,99.8768
3947.5718,99.8465
3948.5361,99.8192
3949.5002,99.8068
3950.4646,99.8123
3951.4287,99.8301
3952.3931,99.8516
3953.3572,99.8702
3954.3215,99.8827
3955.2856,99.8883
3956.2500,99.8876
3957.2141,99.8821
3958.1785,99.8745
3959.1426,99.8685
3960.1069,99.8684
3961.0710,99.8772
3962.0354,99.8943
3962.9995,99.915
3963.9639,99.9326
3964.9280,99.942
3965.8923,99.9421
3966.8564,99.9345
3967.8208,99.9214
3968.7849,99.9042
3969.7493,99.8834
3970.7134,99.8599
3971.6777,99.8369
3972.6418,99.8197
3973.6062,99.8138
3974.5703,99.821
3975.5347,99.8385
3976.4988,99.8596
3977.4631,99.8772
3978.4272,99.8865
3979.3916,99.8868
3980.3557,99.88
3981.3201,99.8696
3982.2842,99.8589
3983.2485,99.8502
3984.2126,99.8444
3985.1770,99.8415
3986.1411,99.8402
3987.1055,99.8381
3988.0696,99.8312
3989.0339,99.8157
3989.9980,99.7905
3990.9624,99.7595
3991.9265,99.7309
3992.8909,99.7144
3993.8550,99.716
3994.8193,99.7336
3995.7834,99.7575
3996.7478,99.7754
3997.7119,99.7787
3998.6763,99.7679
3999.6404,99.7506
4000.6047,99.5889

##### Extended Information
[Comments]
Sample name
Comment
User
Division
Company,HANKYONG

[Detailed Information]
Creation date,4/24/2024 11:10 AM

Data array type,Linear data array
Horizontal axis,Wavenumber [cm-1]
Vertical axis,%T
Start,649.893 cm-1
End,4000.6 cm-1
Data interval,0.964233 cm-1
Data points,3476    

[Measurement Information]
Model Name,FT/IR-4700typeA
Serial Number,D056761788

Accessory,ATR PRO ONE
Accessory S/N,C174761809
Incident angle,45 deg

Measurement Date,4/24/2024 11:09 AM

Light Source,Standard
Detector,TGS
Accumulation,32
Resolution,4 cm-1
Zero Filling,On
Apodization,Cosine
Gain,Auto (4)
Aperture,Auto (7.1 mm)
Scanning Speed,Auto (2 mm/sec)
Filter,Auto (30000 Hz)

