TITLE,
DATA TYPE,INFRARED SPECTRUM
ORIGIN,JASCO
OWNER,
DATE,24/04/24
TIME,11:39:49
SPECTROMETER/DATA SYSTEM,
LOCALE,1033
RESOLUTION,
DELTAX,0.964233
XUNITS,1/CM
YUNITS,TRANSMITTANCE
FIRSTX,  649.8934
LASTX, 4000.6047
NPOINTS,    3476
FIRSTY,    99.22964
MAXY,   101.27249
MINY,    57.39479
XYDATA
649.8934,99.2296
650.8576,99.2578
651.8218,99.2743
652.7861,99.2755
653.7503,99.2568
654.7145,99.2206
655.6788,99.1721
656.6430,99.1164
657.6072,99.0604
658.5715,99.0174
659.5357,99.0065
660.4999,99.0411
661.4642,99.1093
662.4284,99.166
663.3926,99.1398
664.3569,98.9415
665.3211,98.4631
666.2853,97.6015
667.2496,96.3903
668.2138,95.2274
669.1780,94.6997
670.1423,94.8949
671.1065,95.4093
672.0707,95.8905
673.0350,96.1926
673.9992,96.2919
674.9634,96.2211
675.9277,96.0435
676.8919,95.8291
677.8561,95.6305
678.8204,95.4749
679.7846,95.3757
680.7488,95.3441
681.7131,95.3868
682.6773,95.4966
683.6415,95.6505
684.6058,95.8188
685.5700,95.9757
686.5342,96.1038
687.4985,96.1924
688.4627,96.2349
689.4269,96.229
690.3912,96.1794
691.3554,96.1063
692.3196,96.0541
693.2839,96.0798
694.2481,96.2063
695.2123,96.3909
696.1766,96.5666
697.1408,96.6905
698.1050,96.7513
699.0693,96.7544
700.0335,96.7105
700.9977,96.6324
701.9620,96.5362
702.9262,96.4422
703.8904,96.3724
704.8547,96.3411
705.8189,96.3455
706.7831,96.3618
707.7474,96.3548
708.7116,96.296
709.6758,96.1776
710.6401,96.0158
711.6043,95.8381
712.5685,95.6637
713.5328,95.4888
714.4970,95.2859
715.4612,95.1492
716.4255,94.7971
717.3897,94.3916
718.3539,93.9945
719.3182,93.6845
720.2824,93.5191
721.2466,93.5002
722.2109,93.5728
723.1751,93.6551
724.1393,93.6789
725.1036,93.613
726.0678,93.4663
727.0320,93.2747
727.9963,93.0828
728.9605,92.9252
729.9247,92.8158
730.8890,92.747
731.8532,92.6955
732.8174,92.6332
733.7817,92.5371
734.7459,92.396
735.7101,92.2111
736.6744,91.9909
737.6386,91.7446
738.6028,91.4763
739.5671,91.1865
740.5313,90.8749
741.4955,90.5452
742.4598,90.2055
743.4240,89.8662
744.3882,89.5368
745.3525,89.225
746.3167,88.9389
747.2809,88.6868
748.2452,88.4758
749.2094,88.3066
750.1736,88.169
751.1379,88.0431
752.1021,87.9073
753.0663,87.7476
754.0306,87.5646
754.9948,87.3715
755.9590,87.1849
756.9233,87.0138
757.8875,86.8556
758.8517,86.6997
759.8160,86.5372
760.7802,86.3683
761.7444,86.2022
762.7087,86.0496
763.6729,85.9144
764.6371,85.7906
765.6014,85.6667
766.5656,85.5354
767.5298,85.3995
768.4941,85.2709
769.4583,85.1624
770.4225,85.0788
771.3868,85.0121
772.3510,84.9442
773.3152,84.854
774.2795,84.7263
775.2437,84.5562
776.2079,84.35
777.1722,84.1208
778.1364,83.8828
779.1006,83.6458
780.0649,83.413
781.0291,83.1828
781.9933,82.954
782.9576,82.73
783.9218,82.5192
784.8860,82.3303
785.8503,82.165
786.8145,82.0142
787.7787,81.8601
788.7430,81.684
789.7072,81.476
790.6714,81.2391
791.6357,80.987
792.5999,80.737
793.5641,80.5018
794.5284,80.2861
795.4926,80.0858
796.4568,79.8914
797.4211,79.6911
798.3853,79.4735
799.3495,79.2312
800.3138,78.9623
801.2780,78.6724
802.2422,78.3719
803.2065,78.0719
804.1707,77.7786
805.1349,77.4906
806.0992,77.2002
807.0634,76.8988
808.0276,76.5826
808.9919,76.2556
809.9561,75.9281
810.9203,75.6121
811.8846,75.3165
812.8488,75.0442
813.8130,74.793
814.7773,74.5587
815.7415,74.3371
816.7057,74.1259
817.6700,73.9238
818.6342,73.7297
819.5984,73.5418
820.5627,73.3594
821.5269,73.1846
822.4911,73.0227
823.4554,72.8815
824.4196,72.7673
825.3839,72.682
826.3481,72.6205
827.3123,72.5719
828.2766,72.5224
829.2408,72.4597
830.2050,72.3755
831.1693,72.2666
832.1335,72.1341
833.0977,71.9813
834.0620,71.8117
835.0262,71.6282
835.9904,71.4324
836.9547,71.2259
837.9189,71.0106
838.8831,70.7897
839.8474,70.5671
840.8116,70.3459
841.7758,70.1282
842.7401,69.9148
843.7043,69.7066
844.6685,69.5056
845.6328,69.3151
846.5970,69.1385
847.5612,68.9779
848.5255,68.8335
849.4897,68.7051
850.4539,68.5933
851.4182,68.5
852.3824,68.4271
853.3466,68.3744
854.3109,68.3387
855.2751,68.3144
856.2393,68.2951
857.2036,68.2761
858.1678,68.2547
859.1320,68.2302
860.0963,68.2044
861.0605,68.1823
862.0247,68.1727
862.9890,68.1867
863.9532,68.2334
864.9174,68.3149
865.8817,68.4229
866.8459,68.5417
867.8101,68.655
868.7744,68.7536
869.7386,68.8391
870.7028,68.9201
871.6671,69.0043
872.6313,69.0906
873.5955,69.1676
874.5598,69.2198
875.5240,69.2362
876.4882,69.217
877.4525,69.1735
878.4167,69.122
879.3809,69.0755
880.3452,69.0388
881.3094,69.0097
882.2736,68.9838
883.2379,68.9599
884.2021,68.9419
885.1663,68.9359
886.1306,68.9466
887.0948,68.9751
888.0590,69.0206
889.0233,69.0842
889.9875,69.1732
890.9517,69.3002
891.9160,69.4791
892.8802,69.7195
893.8444,70.0229
894.8087,70.3836
895.7729,70.7923
896.7371,71.2405
897.7014,71.7217
898.6656,72.2298
899.6298,72.7562
900.5941,73.2887
901.5583,73.8131
902.5225,74.3172
903.4868,74.7939
904.4510,75.2415
905.4152,75.6614
906.3795,76.0538
907.3437,76.4161
908.3079,76.7427
909.2722,77.0284
910.2364,77.2715
911.2006,77.4767
912.1649,77.655
913.1291,77.8219
914.0933,77.9933
915.0576,78.1816
916.0218,78.3923
916.9860,78.6229
917.9503,78.8655
918.9145,79.1107
919.8787,79.3521
920.8430,79.5891
921.8072,79.8264
922.7714,80.0713
923.7357,80.3299
924.6999,80.6042
925.6641,80.8917
926.6284,81.1873
927.5926,81.4888
928.5568,81.8023
929.5211,82.1487
930.4853,82.5654
931.4495,83.1029
932.4138,83.8144
933.3780,84.7399
934.3422,85.892
935.3065,87.2462
936.2707,88.7438
937.2349,90.3032
938.1992,91.8381
939.1634,93.2756
940.1276,94.5679
941.0919,95.6954
942.0561,96.6611
943.0203,97.4796
943.9846,98.1675
944.9488,98.7361
945.9130,99.1917
946.8773,99.5399
947.8415,99.7906
948.8057,99.961
949.7700,100.074
950.7342,100.154
951.6984,100.219
952.6627,100.275
953.6269,100.322
954.5911,100.352
955.5554,100.361
956.5196,100.342
957.4838,100.296
958.4481,100.228
959.4123,100.143
960.3765,100.039
961.3408,99.9155
962.3050,99.7682
963.2692,99.5996
964.2335,99.4183
965.1977,99.2369
966.1619,99.0677
967.1262,98.9175
968.0904,98.7869
969.0546,98.6721
970.0189,98.5691
970.9831,98.4771
971.9473,98.3986
972.9116,98.337
973.8758,98.2943
974.8400,98.269
975.8043,98.2565
976.7685,98.2498
977.7327,98.2411
978.6970,98.2232
979.6612,98.1909
980.6254,98.1413
981.5897,98.0729
982.5539,97.9844
983.5181,97.873
984.4824,97.7346
985.4466,97.5669
986.4108,97.3735
987.3751,97.1668
988.3393,96.9668
989.3035,96.7956
990.2678,96.6707
991.2320,96.5994
992.1962,96.5774
993.1605,96.5922
994.1247,96.6288
995.0889,96.6748
996.0532,96.7228
997.0174,96.7698
997.9816,96.8135
998.9459,96.849
999.9101,96.8669
1000.8743,96.8536
1001.8386,96.7939
1002.8028,96.6743
1003.7670,96.4855
1004.7313,96.2221
1005.6955,95.882
1006.6597,95.4642
1007.6240,94.9679
1008.5882,94.3923
1009.5524,93.7377
1010.5167,93.0067
1011.4809,92.2048
1012.4451,91.3394
1013.4094,90.4178
1014.3736,89.4445
1015.3378,88.4209
1016.3021,87.3469
1017.2663,86.2254
1018.2305,85.0641
1019.1948,83.8743
1020.1590,82.6646
1021.1232,81.4355
1022.0875,80.179
1023.0517,78.8876
1024.0160,77.5671
1024.9802,76.245
1025.9445,74.9666
1026.9087,73.7792
1027.8729,72.7133
1028.8372,71.7729
1029.8014,70.9405
1030.7656,70.1932
1031.7299,69.5191
1032.6941,68.9247
1033.6583,68.4286
1034.6226,68.05
1035.5868,67.7974
1036.5510,67.6653
1037.5153,67.6368
1038.4795,67.6894
1039.4437,67.8006
1040.4080,67.9502
1041.3722,68.1228
1042.3364,68.3077
1043.3007,68.4995
1044.2649,68.6967
1045.2291,68.9003
1046.1934,69.114
1047.1576,69.345
1048.1218,69.6051
1049.0861,69.908
1050.0503,70.2639
1051.0145,70.6731
1051.9788,71.1236
1052.9430,71.5953
1053.9072,72.0699
1054.8715,72.5398
1055.8357,73.0105
1056.7999,73.4923
1057.7642,73.9857
1058.7284,74.4682
1059.6926,74.8919
1060.6569,75.1974
1061.6211,75.3381
1062.5853,75.3035
1063.5496,75.1284
1064.5138,74.8792
1065.4780,74.6244
1066.4423,74.4011
1067.4065,74.1978
1068.3707,73.9612
1069.3350,73.6235
1070.2992,73.1348
1071.2634,72.4815
1072.2277,71.6855
1073.1919,70.7869
1074.1561,69.8231
1075.1204,68.8177
1076.0846,67.7811
1077.0488,66.7184
1078.0131,65.6375
1078.9773,64.5516
1079.9415,63.4772
1080.9058,62.4303
1081.8700,61.4254
1082.8342,60.4777
1083.7985,59.6057
1084.7627,58.8344
1085.7269,58.1952
1086.6912,57.7229
1087.6554,57.4495
1088.6196,57.3948
1089.5839,57.5584
1090.5481,57.9158
1091.5123,58.4219
1092.4766,59.0227
1093.4408,59.6686
1094.4050,60.3262
1095.3693,60.9809
1096.3335,61.6335
1097.2977,62.2905
1098.2620,62.9568
1099.2262,63.6313
1100.1904,64.3077
1101.1547,64.9773
1102.1189,65.6324
1103.0831,66.2676
1104.0474,66.8794
1105.0116,67.4659
1105.9758,68.0271
1106.9401,68.5669
1107.9043,69.095
1108.8685,69.6271
1109.8328,70.1837
1110.7970,70.7854
1111.7612,71.4487
1112.7255,72.1838
1113.6897,72.9949
1114.6539,73.8824
1115.6182,74.8458
1116.5824,75.8848
1117.5466,76.9982
1118.5109,78.1824
1119.4751,79.43
1120.4393,80.7294
1121.4036,82.0671
1122.3678,83.4293
1123.3320,84.8035
1124.2963,86.1783
1125.2605,87.5421
1126.2247,88.8818
1127.1890,90.182
1128.1532,91.4259
1129.1174,92.5977
1130.0817,93.6845
1131.0459,94.6783
1132.0101,95.5752
1132.9744,96.3753
1133.9386,97.08
1134.9028,97.6915
1135.8671,98.2116
1136.8313,98.6419
1137.7955,98.984
1138.7598,99.2401
1139.7240,99.4132
1140.6882,99.508
1141.6525,99.5304
1142.6167,99.488
1143.5809,99.3904
1144.5452,99.2458
1145.5094,99.0574
1146.4736,98.8579
1147.4379,98.6653
1148.4021,98.4958
1149.3663,98.361
1150.3306,98.2664
1151.2948,98.2126
1152.2590,98.1965
1153.2233,98.213
1154.1875,98.2548
1155.1517,98.3121
1156.1160,98.3723
1157.0802,98.4211
1158.0444,98.4453
1159.0087,98.4341
1159.9729,98.3803
1160.9371,98.2793
1161.9014,98.1284
1162.8656,97.9268
1163.8298,97.6773
1164.7941,97.387
1165.7583,97.0666
1166.7225,96.7281
1167.6868,96.3815
1168.6510,96.0328
1169.6152,95.6838
1170.5795,95.3336
1171.5437,94.9804
1172.5079,94.6221
1173.4722,94.2561
1174.4364,93.8794
1175.4006,93.4879
1176.3649,93.0784
1177.3291,92.6491
1178.2933,92.2011
1179.2576,91.738
1180.2218,91.2653
1181.1860,90.789
1182.1503,90.3146
1183.1145,89.8465
1184.0787,89.3884
1185.0430,88.9433
1186.0072,88.5126
1186.9714,88.0959
1187.9357,87.6901
1188.8999,87.2903
1189.8641,86.891
1190.8284,86.4881
1191.7926,86.0799
1192.7568,85.6673
1193.7211,85.253
1194.6853,84.8403
1195.6495,84.4319
1196.6138,84.0286
1197.5780,83.6293
1198.5422,83.231
1199.5065,82.88
1200.4707,82.4669
1201.4349,82.0468
1202.3992,81.6224
1203.3634,81.1998
1204.3276,80.7865
1205.2919,80.3901
1206.2561,80.0161
1207.2203,79.6664
1208.1846,79.3402
1209.1488,79.0356
1210.1130,78.7518
1211.0773,78.4906
1212.0415,78.2565
1213.0057,78.0547
1213.9700,77.8885
1214.9342,77.7582
1215.8984,77.6601
1216.8627,77.5891
1217.8269,77.54
1218.7911,77.5083
1219.7554,77.4908
1220.7196,77.4845
1221.6838,77.485
1222.6481,77.4864
1223.6123,77.4816
1224.5765,77.4633
1225.5408,77.4243
1226.5050,77.3573
1227.4692,77.2525
1228.4335,77.0967
1229.3977,76.8757
1230.3619,76.5811
1231.3262,76.2215
1232.2904,75.8311
1233.2546,75.4701
1234.2189,75.215
1235.1831,75.1406
1236.1473,75.3008
1237.1116,75.7176
1238.0758,76.3806
1239.0400,77.2539
1240.0043,78.2857
1240.9685,79.4132
1241.9327,80.5636
1242.8970,81.6581
1243.8612,82.6222
1244.8254,83.4028
1245.7897,83.9812
1246.7539,84.3758
1247.7181,84.6301
1248.6824,84.793
1249.6466,84.9029
1250.6108,84.9798
1251.5751,85.0285
1252.5393,85.0465
1253.5035,85.0308
1254.4678,84.9806
1255.4320,84.897
1256.3962,84.7829
1257.3605,84.6427
1258.3247,84.4839
1259.2889,84.3169
1260.2532,84.1528
1261.2174,83.9998
1262.1816,83.8611
1263.1459,83.7345
1264.1101,83.6159
1265.0743,83.5021
1266.0386,83.3933
1267.0028,83.2935
1267.9670,83.2097
1268.9313,83.1501
1269.8955,83.1218
1270.8597,83.1283
1271.8240,83.1692
1272.7882,83.2402
1273.7524,83.3354
1274.7167,83.4498
1275.6809,83.5806
1276.6451,83.7275
1277.6094,83.8914
1278.5736,84.0729
1279.5378,84.2714
1280.5021,84.4841
1281.4663,84.707
1282.4305,84.9349
1283.3948,85.1628
1284.3590,85.3871
1285.3232,85.6059
1286.2875,85.8201
1287.2517,86.033
1288.2159,86.2485
1289.1802,86.4697
1290.1444,86.697
1291.1086,86.9289
1292.0729,87.1627
1293.0371,87.3968
1294.0013,87.6312
1294.9656,87.8671
1295.9298,88.1046
1296.8940,88.3422
1297.8583,88.5756
1298.8225,88.7984
1299.7867,89.004
1300.7510,89.1868
1301.7152,89.3428
1302.6794,89.4715
1303.6437,89.5755
1304.6079,89.6586
1305.5721,89.7238
1306.5364,89.7716
1307.5006,89.7993
1308.4648,89.8036
1309.4291,89.7833
1310.3933,89.7417
1311.3575,89.6866
1312.3218,89.6267
1313.2860,89.5673
1314.2502,89.5087
1315.2145,89.4479
1316.1787,89.3836
1317.1429,89.3193
1318.1072,89.2625
1319.0714,89.2189
1320.0356,89.1867
1320.9999,89.1566
1321.9641,89.1172
1322.9283,89.0619
1323.8926,88.9927
1324.8568,88.9181
1325.8210,88.8499
1326.7853,88.7982
1327.7495,88.7699
1328.7137,88.7691
1329.6780,88.7993
1330.6422,88.8619
1331.6064,88.9537
1332.5707,89.0637
1333.5349,89.1743
1334.4991,89.268
1335.4634,89.3357
1336.4276,89.3855
1337.3918,89.4464
1338.3561,89.5593
1339.3203,89.7493
1340.2845,89.9986
1341.2488,90.2556
1342.2130,90.4714
1343.1772,90.6235
1344.1415,90.7129
1345.1057,90.7514
1346.0699,90.7536
1347.0342,90.7335
1347.9984,90.7027
1348.9626,90.6671
1349.9269,90.6266
1350.8911,90.5768
1351.8553,90.5141
1352.8196,90.4393
1353.7838,90.3589
1354.7480,90.2809
1355.7123,90.2085
1356.6765,90.1369
1357.6407,90.0566
1358.6050,89.9605
1359.5692,89.8517
1360.5334,89.7495
1361.4977,89.687
1362.4619,89.6874
1363.4261,89.737
1364.3904,89.794
1365.3546,89.8255
1366.3188,89.8251
1367.2831,89.8036
1368.2473,89.7723
1369.2115,89.7349
1370.1758,89.6877
1371.1400,89.6272
1372.1042,89.5585
1373.0685,89.4991
1374.0327,89.4703
1374.9969,89.4752
1375.9612,89.49
1376.9254,89.4839
1377.8896,89.4449
1378.8539,89.3862
1379.8181,89.3344
1380.7823,89.3142
1381.7466,89.3383
1382.7108,89.4083
1383.6750,89.5237
1384.6393,89.6891
1385.6035,89.9109
1386.5677,90.1781
1387.5320,90.4397
1388.4962,90.6189
1389.4604,90.6662
1390.4247,90.5884
1391.3889,90.4277
1392.3531,90.2333
1393.3174,90.054
1394.2816,89.9374
1395.2458,89.9133
1396.2101,89.9693
1397.1743,90.0517
1398.1385,90.0995
1399.1028,90.0764
1400.0670,89.9773
1401.0313,89.818
1401.9955,89.6212
1402.9597,89.4094
1403.9240,89.202
1404.8882,89.0139
1405.8524,88.8506
1406.8167,88.7049
1407.7809,88.5663
1408.7451,88.4301
1409.7094,88.2977
1410.6736,88.1691
1411.6378,88.0391
1412.6021,87.8995
1413.5663,87.7462
1414.5305,87.58
1415.4948,87.3991
1416.4590,87.1963
1417.4232,86.9721
1418.3875,86.745
1419.3517,86.5227
1420.3159,86.2809
1421.2802,86
1422.2444,85.6961
1423.2086,85.4036
1424.1729,85.1499
1425.1371,84.944
1426.1013,84.7803
1427.0656,84.6502
1428.0298,84.5519
1428.9940,84.4935
1429.9583,84.4838
1430.9225,84.5227
1431.8867,84.6035
1432.8510,84.7249
1433.8152,84.892
1434.7794,85.1063
1435.7437,85.3525
1436.7079,85.5776
1437.6721,85.6948
1438.6364,85.6483
1439.6006,85.4596
1440.5648,85.1898
1441.5291,84.8849
1442.4933,84.5598
1443.4575,84.2083
1444.4218,83.8204
1445.3860,83.3936
1446.3502,82.9374
1447.3145,82.4725
1448.2787,82.0232
1449.2429,81.6058
1450.2072,81.2272
1451.1714,80.8958
1452.1356,80.6236
1453.0999,80.4102
1454.0641,80.2214
1455.0283,79.9948
1455.9926,79.7204
1456.9568,79.5309
1457.9210,79.5114
1458.8853,79.5092
1459.8495,79.4114
1460.8137,79.2679
1461.7780,79.1693
1462.7422,79.1833
1463.7064,79.361
1464.6707,79.7244
1465.6349,80.2191
1466.5991,80.7373
1467.5634,81.2211
1468.5276,81.6986
1469.4918,82.2364
1470.4561,82.9018
1471.4203,83.7604
1472.3845,84.8462
1473.3488,86.0516
1474.3130,87.1208
1475.2772,87.875
1476.2415,88.3259
1477.2057,88.5682
1478.1699,88.6842
1479.1342,88.7295
1480.0984,88.748
1481.0626,88.7762
1482.0269,88.8341
1482.9911,88.9174
1483.9553,89.0032
1484.9196,89.0626
1485.8838,89.0698
1486.8480,89.016
1487.8123,88.9408
1488.7765,88.937
1489.7407,89.0476
1490.7050,89.1818
1491.6692,89.2307
1492.6334,89.1744
1493.5977,89.042
1494.5619,88.8508
1495.5261,88.6
1496.4904,88.3093
1497.4546,88.0333
1498.4188,87.8017
1499.3831,87.585
1500.3473,87.3657
1501.3115,87.1781
1502.2758,87.0654
1503.2400,87.019
1504.2042,86.9313
1505.1685,86.5918
1506.1327,85.8579
1507.0969,85.0098
1508.0612,84.4817
1509.0254,84.1911
1509.9896,83.9065
1510.9539,83.5839
1511.9181,83.2638
1512.8823,82.9945
1513.8466,82.8331
1514.8108,82.85
1515.7750,83.1017
1516.7393,83.5941
1517.7035,84.2965
1518.6677,85.2072
1519.6320,86.3792
1520.5962,87.8346
1521.5604,89.4377
1522.5247,90.9361
1523.4889,92.1789
1524.4531,93.2201
1525.4174,94.1972
1526.3816,95.1669
1527.3458,96.0673
1528.3101,96.8077
1529.2743,97.363
1530.2385,97.7831
1531.2028,98.151
1532.1670,98.5367
1533.1312,98.9538
1534.0955,99.3453
1535.0597,99.6505
1536.0239,99.8712
1536.9882,100.029
1537.9524,100.079
1538.9166,99.9048
1539.8809,99.5266
1540.8451,99.3133
1541.8093,99.5198
1542.7736,99.8928
1543.7378,100.187
1544.7020,100.365
1545.6663,100.446
1546.6305,100.446
1547.5947,100.386
1548.5590,100.292
1549.5232,100.188
1550.4874,100.078
1551.4517,99.951
1552.4159,99.8039
1553.3801,99.6574
1554.3444,99.5786
1555.3086,99.5548
1556.2728,99.5507
1557.2371,99.5398
1558.2013,99.6395
1559.1655,99.882
1560.1298,99.9011
1561.0940,99.5318
1562.0582,98.9795
1563.0225,98.4614
1563.9867,98.0738
1564.9509,97.8177
1565.9152,97.6417
1566.8794,97.4766
1567.8436,97.2707
1568.8079,97.0163
1569.7721,96.7391
1570.7363,96.4642
1571.7006,96.207
1572.6648,95.9682
1573.6290,95.7137
1574.5933,95.3803
1575.5575,94.9427
1576.5217,94.4701
1577.4860,94.0407
1578.4502,93.6479
1579.4144,93.2592
1580.3787,92.8654
1581.3429,92.4636
1582.3071,92.0465
1583.2714,91.6117
1584.2356,91.1664
1585.1998,90.7202
1586.1641,90.2773
1587.1283,89.8391
1588.0925,89.4092
1589.0568,88.9947
1590.0210,88.6012
1590.9852,88.2294
1591.9495,87.878
1592.9137,87.5493
1593.8779,87.2524
1594.8422,86.9965
1595.8064,86.7819
1596.7706,86.5965
1597.7349,86.4229
1598.6991,86.2488
1599.6633,86.0729
1600.6276,85.9041
1601.5918,85.7553
1602.5560,85.635
1603.5203,85.5406
1604.4845,85.4608
1605.4487,85.3858
1606.4130,85.3175
1607.3772,85.2719
1608.3414,85.2712
1609.3057,85.3247
1610.2699,85.4189
1611.2341,85.5346
1612.1984,85.6702
1613.1626,85.8446
1614.1268,86.0917
1615.0911,86.457
1616.0553,86.963
1617.0195,87.5243
1617.9838,87.9759
1618.9480,88.2507
1619.9122,88.4241
1620.8765,88.6076
1621.8407,88.8697
1622.8049,89.2154
1623.7692,89.5955
1624.7334,89.9435
1625.6976,90.2291
1626.6619,90.4689
1627.6261,90.6881
1628.5903,90.8877
1629.5546,91.0566
1630.5188,91.2004
1631.4830,91.3428
1632.4473,91.4918
1633.4115,91.6123
1634.3757,91.6603
1635.3400,91.673
1636.3042,91.7396
1637.2684,91.8288
1638.2327,91.8493
1639.1969,91.8005
1640.1611,91.7395
1641.1254,91.713
1642.0896,91.7337
1643.0538,91.7739
1644.0181,91.7652
1644.9823,91.6371
1645.9465,91.4126
1646.9108,91.2297
1647.8750,91.1909
1648.8392,91.2992
1649.8035,91.5311
1650.7677,91.8298
1651.7319,92.0759
1652.6962,92.1823
1653.6604,92.1765
1654.6246,92.0069
1655.5889,91.6295
1656.5531,91.1833
1657.5173,90.8225
1658.4816,90.6007
1659.4458,90.4825
1660.4100,90.394
1661.3743,90.2825
1662.3385,90.1458
1663.3027,90.0033
1664.2670,89.8652
1665.2312,89.7348
1666.1954,89.6042
1667.1597,89.4452
1668.1239,89.2319
1669.0881,88.9912
1670.0524,88.7997
1671.0166,88.7015
1671.9808,88.6776
1672.9451,88.692
1673.9093,88.7093
1674.8735,88.682
1675.8378,88.5585
1676.8020,88.3206
1677.7662,88.0135
1678.7305,87.7257
1679.6947,87.5336
1680.6589,87.4534
1681.6232,87.4301
1682.5874,87.3824
1683.5516,87.2857
1684.5159,87.1496
1685.4801,86.9236
1686.4443,86.5819
1687.4086,86.1873
1688.3728,85.8216
1689.3370,85.5339
1690.3013,85.3365
1691.2655,85.2117
1692.2297,85.1154
1693.1940,84.9823
1694.1582,84.7442
1695.1224,84.3713
1696.0867,83.9201
1697.0509,83.5319
1698.0151,83.3325
1698.9794,83.2969
1699.9436,83.2518
1700.9078,83.0431
1701.8721,82.6653
1702.8363,82.2258
1703.8005,81.8448
1704.7648,81.5956
1705.7290,81.4894
1706.6932,81.4845
1707.6575,81.5147
1708.6217,81.5331
1709.5859,81.5335
1710.5502,81.5354
1711.5144,81.5562
1712.4786,81.5972
1713.4429,81.649
1714.4071,81.7191
1715.3713,81.8801
1716.3356,82.2649
1717.2998,82.8827
1718.2640,83.4918
1719.2283,83.8728
1720.1925,84.045
1721.1567,84.1496
1722.1210,84.3026
1723.0852,84.5466
1724.0494,84.8605
1725.0137,85.1903
1725.9779,85.4858
1726.9421,85.7268
1727.9064,85.9272
1728.8706,86.121
1729.8348,86.3454
1730.7991,86.6332
1731.7633,87.018
1732.7275,87.5238
1733.6918,88.0944
1734.6560,88.5633
1735.6202,88.8148
1736.5845,88.9069
1737.5487,88.9795
1738.5129,89.1333
1739.4772,89.3884
1740.4414,89.6982
1741.4056,89.9916
1742.3699,90.2218
1743.3341,90.3921
1744.2983,90.5377
1745.2626,90.6933
1746.2268,90.8809
1747.1910,91.1236
1748.1553,91.4622
1749.1195,91.9296
1750.0837,92.48
1751.0480,92.9812
1752.0122,93.327
1752.9764,93.5177
1753.9407,93.6239
1754.9049,93.7172
1755.8691,93.8349
1756.8334,93.98
1757.7976,94.1394
1758.7618,94.3044
1759.7261,94.4798
1760.6903,94.6748
1761.6545,94.8852
1762.6188,95.0875
1763.5830,95.2565
1764.5472,95.3886
1765.5115,95.5008
1766.4757,95.6107
1767.4399,95.7203
1768.4042,95.8175
1769.3684,95.8949
1770.3326,95.9749
1771.2969,96.1132
1772.2611,96.345
1773.2253,96.6222
1774.1896,96.8542
1775.1538,97.0055
1776.1180,97.1108
1777.0823,97.2226
1778.0465,97.37
1779.0107,97.553
1779.9750,97.756
1780.9392,97.9639
1781.9034,98.1681
1782.8677,98.3626
1783.8319,98.5355
1784.7961,98.6679
1785.7604,98.7476
1786.7246,98.7834
1787.6888,98.8018
1788.6531,98.8261
1789.6173,98.8596
1790.5815,98.8925
1791.5458,98.9256
1792.5100,98.9658
1793.4742,98.9963
1794.4385,98.9947
1795.4027,98.9724
1796.3669,98.9642
1797.3312,98.9929
1798.2954,99.0567
1799.2596,99.1411
1800.2239,99.233
1801.1881,99.3221
1802.1523,99.3976
1803.1166,99.4508
1804.0808,99.4806
1805.0450,99.4911
1806.0093,99.4868
1806.9735,99.4705
1807.9377,99.447
1808.9020,99.4277
1809.8662,99.4288
1810.8304,99.4604
1811.7947,99.5165
1812.7589,99.5799
1813.7231,99.6365
1814.6874,99.6809
1815.6516,99.712
1816.6158,99.7288
1817.5801,99.7308
1818.5443,99.7203
1819.5085,99.7041
1820.4728,99.6917
1821.4370,99.6898
1822.4012,99.6976
1823.3655,99.7066
1824.3297,99.7053
1825.2939,99.6839
1826.2582,99.6412
1827.2224,99.5979
1828.1866,99.5794
1829.1509,99.6013
1830.1151,99.6656
1831.0793,99.7394
1832.0436,99.7829
1833.0078,99.7855
1833.9720,99.765
1834.9363,99.7433
1835.9005,99.7311
1836.8647,99.729
1837.8290,99.7351
1838.7932,99.7519
1839.7574,99.7868
1840.7217,99.8403
1841.6859,99.8963
1842.6501,99.93
1843.6144,99.9318
1844.5786,99.9134
1845.5428,99.8862
1846.5071,99.8555
1847.4713,99.8342
1848.4355,99.8378
1849.3998,99.8695
1850.3640,99.9156
1851.3282,99.9565
1852.2925,99.9798
1853.2567,99.9854
1854.2209,99.981
1855.1852,99.9739
1856.1494,99.9678
1857.1136,99.9631
1858.0779,99.9612
1859.0421,99.9643
1860.0063,99.9717
1860.9706,99.9764
1861.9348,99.9674
1862.8990,99.9367
1863.8633,99.8837
1864.8275,99.814
1865.7917,99.7379
1866.7560,99.6782
1867.7202,99.6728
1868.6844,99.7457
1869.6487,99.868
1870.6129,99.9774
1871.5771,100.038
1872.5414,100.059
1873.5056,100.062
1874.4698,100.065
1875.4341,100.069
1876.3983,100.073
1877.3625,100.075
1878.3268,100.075
1879.2910,100.074
1880.2552,100.071
1881.2195,100.065
1882.1837,100.053
1883.1479,100.034
1884.1122,100.012
1885.0764,99.9921
1886.0406,99.9795
1887.0049,99.9752
1887.9691,99.9784
1888.9333,99.9866
1889.8976,99.9938
1890.8618,99.992
1891.8260,99.9776
1892.7903,99.9558
1893.7545,99.9375
1894.7188,99.9333
1895.6830,99.9474
1896.6472,99.9751
1897.6115,100.005
1898.5757,100.025
1899.5399,100.032
1900.5042,100.027
1901.4684,100.015
1902.4326,99.9988
1903.3969,99.9792
1904.3611,99.953
1905.3253,99.9178
1906.2896,99.876
1907.2538,99.8367
1908.2180,99.8133
1909.1823,99.8153
1910.1465,99.8404
1911.1107,99.875
1912.0750,99.9047
1913.0392,99.9251
1914.0034,99.9394
1914.9677,99.9516
1915.9319,99.9604
1916.8961,99.9593
1917.8604,99.9398
1918.8246,99.8967
1919.7888,99.8349
1920.7531,99.772
1921.7173,99.7309
1922.6815,99.7268
1923.6458,99.7578
1924.6100,99.8059
1925.5742,99.8488
1926.5385,99.8737
1927.5027,99.8805
1928.4669,99.8761
1929.4312,99.8678
1930.3954,99.8599
1931.3596,99.8536
1932.3239,99.8491
1933.2881,99.847
1934.2523,99.8475
1935.2166,99.8491
1936.1808,99.8482
1937.1450,99.8412
1938.1093,99.8257
1939.0735,99.8013
1940.0377,99.7698
1941.0020,99.7364
1941.9662,99.7107
1942.9304,99.7001
1943.8947,99.7051
1944.8589,99.7197
1945.8231,99.7391
1946.7874,99.7617
1947.7516,99.7862
1948.7158,99.8094
1949.6801,99.8265
1950.6443,99.8347
1951.6085,99.8346
1952.5728,99.8304
1953.5370,99.8268
1954.5012,99.8265
1955.4655,99.8291
1956.4297,99.832
1957.3939,99.8333
1958.3582,99.8329
1959.3224,99.832
1960.2866,99.8311
1961.2509,99.8281
1962.2151,99.8195
1963.1793,99.8029
1964.1436,99.7798
1965.1078,99.757
1966.0720,99.7448
1967.0363,99.7512
1968.0005,99.7756
1968.9647,99.8085
1969.9290,99.8379
1970.8932,99.8565
1971.8574,99.8636
1972.8217,99.8628
1973.7859,99.8586
1974.7501,99.855
1975.7144,99.853
1976.6786,99.8517
1977.6428,99.8501
1978.6071,99.8476
1979.5713,99.8448
1980.5355,99.842
1981.4998,99.8386
1982.4640,99.8331
1983.4282,99.8236
1984.3925,99.8089
1985.3567,99.7893
1986.3209,99.7664
1987.2852,99.7424
1988.2494,99.7196
1989.2136,99.7002
1990.1779,99.687
1991.1421,99.6827
1992.1063,99.688
1993.0706,99.6993
1994.0348,99.7105
1994.9990,99.7165
1995.9633,99.716
1996.9275,99.7108
1997.8917,99.7041
1998.8560,99.699
1999.8202,99.697
2000.7844,99.6973
2001.7487,99.6974
2002.7129,99.6943
2003.6771,99.6862
2004.6414,99.6733
2005.6056,99.6579
2006.5698,99.6431
2007.5341,99.6316
2008.4983,99.6249
2009.4625,99.6219
2010.4268,99.6196
2011.3910,99.6136
2012.3552,99.6003
2013.3195,99.5787
2014.2837,99.551
2015.2479,99.5234
2016.2122,99.5032
2017.1764,99.4958
2018.1406,99.5014
2019.1049,99.5149
2020.0691,99.5296
2021.0333,99.5403
2021.9976,99.5452
2022.9618,99.5448
2023.9260,99.5413
2024.8903,99.5369
2025.8545,99.5331
2026.8187,99.5306
2027.7830,99.5294
2028.7472,99.5289
2029.7114,99.5285
2030.6757,99.5276
2031.6399,99.5262
2032.6041,99.5253
2033.5684,99.526
2034.5326,99.5284
2035.4968,99.5311
2036.4611,99.5317
2037.4253,99.5281
2038.3895,99.52
2039.3538,99.5101
2040.3180,99.5028
2041.2822,99.5025
2042.2465,99.5105
2043.2107,99.5247
2044.1749,99.5405
2045.1392,99.5532
2046.1034,99.5603
2047.0676,99.5618
2048.0320,99.5594
2048.9961,99.556
2049.9604,99.5536
2050.9246,99.5532
2051.8889,99.5545
2052.8530,99.5561
2053.8174,99.5562
2054.7815,99.5538
2055.7458,99.5493
2056.7100,99.5439
2057.6743,99.5388
2058.6384,99.5345
2059.6028,99.5297
2060.5669,99.5229
2061.5313,99.5133
2062.4954,99.5025
2063.4597,99.4941
2064.4238,99.4919
2065.3882,99.4976
2066.3523,99.5095
2067.3167,99.5238
2068.2808,99.5364
2069.2451,99.5453
2070.2092,99.5508
2071.1736,99.5542
2072.1377,99.5573
2073.1021,99.5604
2074.0662,99.563
2075.0305,99.5646
2075.9946,99.5651
2076.9590,99.5653
2077.9231,99.566
2078.8875,99.5676
2079.8516,99.5695
2080.8159,99.571
2081.7800,99.5711
2082.7444,99.5698
2083.7085,99.5677
2084.6729,99.566
2085.6370,99.5655
2086.6013,99.5663
2087.5654,99.5679
2088.5298,99.5693
2089.4939,99.5702
2090.4583,99.5706
2091.4224,99.571
2092.3867,99.5717
2093.3508,99.5731
2094.3152,99.5751
2095.2793,99.5774
2096.2437,99.5795
2097.2078,99.5813
2098.1721,99.5823
2099.1362,99.5822
2100.1006,99.5798
2101.0647,99.5784
2102.0291,99.5772
2102.9932,99.5771
2103.9575,99.5781
2104.9216,99.5795
2105.8860,99.5798
2106.8501,99.5776
2107.8145,99.5727
2108.7786,99.5658
2109.7429,99.5586
2110.7070,99.5528
2111.6714,99.5497
2112.6355,99.5494
2113.5999,99.5517
2114.5640,99.5555
2115.5283,99.5598
2116.4924,99.5635
2117.4568,99.566
2118.4209,99.5673
2119.3853,99.5674
2120.3494,99.5665
2121.3137,99.5647
2122.2778,99.5621
2123.2422,99.5588
2124.2063,99.5554
2125.1707,99.553
2126.1348,99.5529
2127.0991,99.5558
2128.0632,99.5615
2129.0276,99.5683
2129.9917,99.5741
2130.9561,99.5766
2131.9202,99.5747
2132.8845,99.5687
2133.8486,99.561
2134.8130,99.5547
2135.7771,99.5529
2136.7415,99.5573
2137.7056,99.5671
2138.6699,99.5795
2139.6340,99.5909
2140.5984,99.5983
2141.5625,99.6014
2142.5269,99.6018
2143.4910,99.6028
2144.4553,99.6069
2145.4194,99.6146
2146.3838,99.624
2147.3479,99.6319
2148.3123,99.6359
2149.2764,99.6352
2150.2407,99.6311
2151.2048,99.6261
2152.1692,99.6226
2153.1333,99.6219
2154.0977,99.6241
2155.0618,99.6284
2156.0261,99.634
2156.9902,99.6402
2157.9546,99.6468
2158.9187,99.6534
2159.8831,99.6596
2160.8472,99.6651
2161.8115,99.6694
2162.7756,99.6724
2163.7400,99.674
2164.7041,99.6741
2165.6685,99.6731
2166.6326,99.6712
2167.5969,99.6693
2168.5610,99.6684
2169.5254,99.6692
2170.4895,99.6723
2171.4539,99.6771
2172.4180,99.6827
2173.3823,99.6877
2174.3464,99.6906
2175.3108,99.6911
2176.2749,99.6892
2177.2393,99.6859
2178.2034,99.6822
2179.1677,99.6787
2180.1318,99.6755
2181.0962,99.6725
2182.0603,99.6693
2183.0247,99.6663
2183.9888,99.6643
2184.9531,99.6641
2185.9172,99.6664
2186.8816,99.6707
2187.8457,99.6758
2188.8101,99.6797
2189.7742,99.6812
2190.7385,99.6802
2191.7026,99.6777
2192.6670,99.6756
2193.6311,99.6753
2194.5955,99.6769
2195.5596,99.6796
2196.5239,99.6815
2197.4880,99.6814
2198.4524,99.679
2199.4165,99.6752
2200.3809,99.6715
2201.3450,99.6689
2202.3093,99.6672
2203.2734,99.6653
2204.2378,99.6618
2205.2019,99.6563
2206.1663,99.6497
2207.1304,99.6442
2208.0947,99.6414
2209.0588,99.6422
2210.0232,99.645
2210.9873,99.6476
2211.9517,99.6477
2212.9158,99.6448
2213.8801,99.64
2214.8442,99.6357
2215.8086,99.6337
2216.7727,99.6341
2217.7371,99.6354
2218.7012,99.6353
2219.6655,99.6324
2220.6296,99.6267
2221.5940,99.6199
2222.5581,99.6141
2223.5225,99.6104
2224.4866,99.6086
2225.4509,99.6067
2226.4150,99.6028
2227.3794,99.5957
2228.3435,99.5852
2229.3079,99.5724
2230.2720,99.559
2231.2363,99.5467
2232.2004,99.5367
2233.1648,99.5294
2234.1289,99.5243
2235.0933,99.5207
2236.0574,99.5174
2237.0217,99.5132
2237.9858,99.5072
2238.9502,99.4992
2239.9143,99.4894
2240.8787,99.4786
2241.8428,99.4677
2242.8071,99.4575
2243.7712,99.4484
2244.7356,99.4404
2245.6997,99.4334
2246.6641,99.4264
2247.6282,99.4182
2248.5925,99.4076
2249.5566,99.3941
2250.5210,99.3782
2251.4851,99.3611
2252.4495,99.3444
2253.4136,99.3293
2254.3779,99.3152
2255.3420,99.3011
2256.3064,99.2854
2257.2705,99.2673
2258.2349,99.2476
2259.1990,99.2278
2260.1633,99.2099
2261.1274,99.195
2262.0918,99.1837
2263.0559,99.1756
2264.0203,99.1698
2264.9844,99.1652
2265.9487,99.1604
2266.9128,99.1538
2267.8772,99.144
2268.8413,99.1309
2269.8057,99.1158
2270.7698,99.1014
2271.7341,99.0908
2272.6982,99.0862
2273.6626,99.0876
2274.6267,99.0935
2275.5911,99.1016
2276.5552,99.1104
2277.5195,99.1195
2278.4836,99.1295
2279.4480,99.1408
2280.4121,99.1522
2281.3765,99.1606
2282.3406,99.1618
2283.3049,99.152
2284.2690,99.1292
2285.2334,99.0942
2286.1975,99.0506
2287.1619,99.0026
2288.1260,98.954
2289.0903,98.9061
2290.0544,98.8584
2291.0188,98.8106
2291.9829,98.7641
2292.9473,98.7222
2293.9114,98.6887
2294.8757,98.6658
2295.8398,98.6533
2296.8042,98.6499
2297.7683,98.6561
2298.7327,98.6752
2299.6968,98.7121
2300.6611,98.7694
2301.6252,98.8429
2302.5896,98.9211
2303.5537,98.9876
2304.5181,99.0285
2305.4822,99.0385
2306.4465,99.026
2307.4106,99.0111
2308.3750,99.0188
2309.3391,99.0681
2310.3035,99.1627
2311.2676,99.2892
2312.2319,99.423
2313.1960,99.541
2314.1604,99.6331
2315.1245,99.7058
2316.0889,99.7767
2317.0530,99.8628
2318.0173,99.9689
2318.9814,100.079
2319.9458,100.159
2320.9099,100.16
2321.8743,100.048
2322.8384,99.8177
2323.8027,99.51
2324.7668,99.1962
2325.7312,98.9535
2326.6953,98.834
2327.6597,98.8454
2328.6238,98.9465
2329.5881,99.0613
2330.5522,99.1102
2331.5166,99.0468
2332.4807,98.8782
2333.4451,98.6561
2334.4092,98.4441
2335.3735,98.2843
2336.3376,98.1811
2337.3020,98.1059
2338.2661,98.0178
2339.2305,97.8921
2340.1946,97.7464
2341.1589,97.6569
2342.1230,97.743
2343.0874,98.0739
2344.0515,98.5259
2345.0159,98.8135
2345.9800,98.7598
2346.9443,98.4535
2347.9084,98.1265
2348.8728,97.9709
2349.8369,98.0461
2350.8013,98.2708
2351.7654,98.4719
2352.7297,98.4996
2353.6938,98.3204
2354.6582,98.0353
2355.6223,97.7507
2356.5867,97.4769
2357.5508,97.1913
2358.5151,96.9312
2359.4792,96.778
2360.4436,96.7718
2361.4077,96.8818
2362.3721,97.0619
2363.3362,97.3022
2364.3005,97.6189
2365.2646,98.0144
2366.2290,98.4617
2367.1931,98.9205
2368.1575,99.3585
2369.1216,99.7558
2370.0859,100.101
2371.0500,100.383
2372.0144,100.595
2372.9785,100.727
2373.9429,100.773
2374.9070,100.729
2375.8713,100.599
2376.8354,100.398
2377.7998,100.152
2378.7639,99.8907
2379.7283,99.6455
2380.6924,99.4392
2381.6567,99.2853
2382.6208,99.1866
2383.5852,99.1371
2384.5493,99.1254
2385.5137,99.1375
2386.4778,99.1606
2387.4421,99.1847
2388.4063,99.2041
2389.3706,99.2169
2390.3347,99.2244
2391.2991,99.2293
2392.2632,99.2342
2393.2275,99.2407
2394.1917,99.2485
2395.1560,99.2567
2396.1201,99.2643
2397.0845,99.2714
2398.0486,99.2779
2399.0129,99.2841
2399.9771,99.2899
2400.9414,99.2944
2401.9055,99.2972
2402.8699,99.2988
2403.8340,99.3006
2404.7983,99.3044
2405.7625,99.3111
2406.7268,99.3201
2407.6909,99.3297
2408.6553,99.3381
2409.6194,99.3445
2410.5837,99.349
2411.5479,99.3525
2412.5122,99.3563
2413.4763,99.3608
2414.4407,99.3663
2415.4048,99.3726
2416.3691,99.3796
2417.3333,99.3872
2418.2976,99.3948
2419.2617,99.4014
2420.2261,99.406
2421.1902,99.4082
2422.1545,99.4087
2423.1187,99.4092
2424.0830,99.4116
2425.0471,99.417
2426.0115,99.4249
2426.9756,99.4334
2427.9399,99.4408
2428.9041,99.4461
2429.8684,99.4498
2430.8325,99.4534
2431.7969,99.4578
2432.7610,99.4629
2433.7253,99.4673
2434.6895,99.4698
2435.6538,99.4699
2436.6179,99.4691
2437.5823,99.4693
2438.5464,99.4723
2439.5107,99.4787
2440.4749,99.4872
2441.4392,99.496
2442.4033,99.5035
2443.3677,99.5089
2444.3318,99.5124
2445.2961,99.5144
2446.2603,99.5153
2447.2246,99.5153
2448.1887,99.5144
2449.1531,99.5134
2450.1172,99.5134
2451.0815,99.5156
2452.0457,99.5208
2453.0100,99.5284
2453.9741,99.5366
2454.9385,99.5432
2455.9026,99.5461
2456.8669,99.5451
2457.8311,99.5411
2458.7954,99.5363
2459.7595,99.5332
2460.7239,99.5336
2461.6880,99.5378
2462.6523,99.5448
2463.6165,99.5522
2464.5808,99.5577
2465.5449,99.5591
2466.5093,99.5562
2467.4734,99.55
2468.4377,99.543
2469.4019,99.5378
2470.3662,99.5359
2471.3303,99.5378
2472.2947,99.5425
2473.2588,99.5485
2474.2231,99.554
2475.1873,99.5579
2476.1516,99.5596
2477.1157,99.5594
2478.0801,99.5584
2479.0442,99.558
2480.0085,99.5591
2480.9727,99.5617
2481.9370,99.5648
2482.9011,99.5668
2483.8655,99.5667
2484.8296,99.5649
2485.7939,99.5631
2486.7581,99.5635
2487.7224,99.5672
2488.6865,99.5736
2489.6509,99.5806
2490.6150,99.5856
2491.5793,99.5869
2492.5435,99.5848
2493.5078,99.5814
2494.4719,99.58
2495.4363,99.583
2496.4004,99.591
2497.3647,99.602
2498.3289,99.6123
2499.2932,99.6181
2500.2573,99.6179
2501.2217,99.613
2502.1858,99.607
2503.1501,99.6041
2504.1143,99.6065
2505.0786,99.6138
2506.0427,99.6229
2507.0071,99.6302
2507.9712,99.6334
2508.9355,99.632
2509.8997,99.6277
2510.8640,99.6226
2511.8281,99.6189
2512.7925,99.6184
2513.7566,99.6219
2514.7209,99.6297
2515.6851,99.6407
2516.6494,99.6528
2517.6135,99.6626
2518.5779,99.6674
2519.5420,99.6663
2520.5063,99.6609
2521.4705,99.6545
2522.4348,99.6507
2523.3989,99.6516
2524.3633,99.6569
2525.3274,99.6648
2526.2917,99.673
2527.2559,99.6799
2528.2202,99.6849
2529.1843,99.6883
2530.1487,99.6903
2531.1128,99.6913
2532.0771,99.6913
2533.0413,99.6906
2534.0056,99.6898
2534.9697,99.6896
2535.9341,99.6906
2536.8982,99.6932
2537.8625,99.6976
2538.8267,99.7035
2539.7910,99.7104
2540.7551,99.7173
2541.7195,99.7234
2542.6836,99.7284
2543.6479,99.7325
2544.6121,99.7361
2545.5764,99.7397
2546.5405,99.7432
2547.5049,99.746
2548.4690,99.7479
2549.4333,99.7489
2550.3975,99.7501
2551.3618,99.7527
2552.3259,99.7577
2553.2903,99.7651
2554.2544,99.7744
2555.2188,99.7848
2556.1829,99.7958
2557.1472,99.8069
2558.1113,99.8175
2559.0757,99.8265
2560.0398,99.8326
2561.0042,99.8344
2561.9683,99.8319
2562.9326,99.826
2563.8967,99.8189
2564.8611,99.8136
2565.8252,99.8122
2566.7896,99.8161
2567.7537,99.8247
2568.7180,99.8361
2569.6821,99.8478
2570.6465,99.8573
2571.6106,99.8633
2572.5750,99.866
2573.5391,99.8662
2574.5034,99.8651
2575.4675,99.8639
2576.4319,99.8633
2577.3960,99.8637
2578.3604,99.8658
2579.3245,99.87
2580.2888,99.8766
2581.2529,99.885
2582.2173,99.8942
2583.1814,99.9025
2584.1458,99.9084
2585.1099,99.9103
2586.0742,99.908
2587.0383,99.902
2588.0027,99.8944
2588.9668,99.8874
2589.9312,99.883
2590.8953,99.8822
2591.8596,99.8844
2592.8237,99.8881
2593.7881,99.8916
2594.7522,99.8943
2595.7166,99.8965
2596.6807,99.8991
2597.6450,99.9029
2598.6091,99.9077
2599.5735,99.9128
2600.5376,99.9173
2601.5020,99.9206
2602.4661,99.9229
2603.4304,99.925
2604.3945,99.9278
2605.3589,99.9324
2606.3230,99.9389
2607.2874,99.9468
2608.2515,99.9548
2609.2158,99.9613
2610.1799,99.965
2611.1443,99.9653
2612.1084,99.963
2613.0728,99.9594
2614.0369,99.9564
2615.0012,99.9553
2615.9653,99.9573
2616.9297,99.9621
2617.8938,99.969
2618.8582,99.9764
2619.8223,99.9825
2620.7866,99.9862
2621.7507,99.9875
2622.7151,99.9875
2623.6792,99.9879
2624.6436,99.99
2625.6077,99.9938
2626.5720,99.9986
2627.5361,100.003
2628.5005,100.006
2629.4646,100.007
2630.4290,100.007
2631.3931,100.006
2632.3574,100.006
2633.3215,100.007
2634.2859,100.01
2635.2500,100.016
2636.2144,100.025
2637.1785,100.035
2638.1428,100.043
2639.1069,100.051
2640.0713,100.056
2641.0354,100.059
2641.9998,100.062
2642.9639,100.065
2643.9282,100.068
2644.8923,100.071
2645.8567,100.075
2646.8208,100.078
2647.7852,100.081
2648.7493,100.082
2649.7136,100.082
2650.6777,100.082
2651.6421,100.082
2652.6062,100.085
2653.5706,100.092
2654.5347,100.102
2655.4990,100.114
2656.4631,100.127
2657.4275,100.138
2658.3916,100.146
2659.3560,100.152
2660.3201,100.157
2661.2844,100.161
2662.2485,100.168
2663.2129,100.176
2664.1770,100.188
2665.1414,100.201
2666.1055,100.216
2667.0698,100.23
2668.0339,100.241
2668.9983,100.25
2669.9624,100.255
2670.9268,100.259
2671.8909,100.264
2672.8552,100.271
2673.8193,100.28
2674.7837,100.291
2675.7478,100.301
2676.7122,100.31
2677.6763,100.316
2678.6406,100.318
2679.6047,100.317
2680.5691,100.313
2681.5332,100.31
2682.4976,100.308
2683.4617,100.309
2684.4260,100.312
2685.3901,100.316
2686.3545,100.318
2687.3186,100.319
2688.2830,100.318
2689.2471,100.317
2690.2114,100.318
2691.1755,100.323
2692.1399,100.331
2693.1040,100.342
2694.0684,100.354
2695.0325,100.365
2695.9968,100.373
2696.9609,100.377
2697.9253,100.377
2698.8894,100.374
2699.8538,100.368
2700.8179,100.362
2701.7822,100.356
2702.7463,100.351
2703.7107,100.347
2704.6748,100.344
2705.6392,100.342
2706.6033,100.34
2707.5676,100.337
2708.5317,100.335
2709.4961,100.334
2710.4602,100.333
2711.4246,100.332
2712.3887,100.328
2713.3530,100.321
2714.3171,100.311
2715.2815,100.297
2716.2456,100.283
2717.2100,100.271
2718.1741,100.261
2719.1384,100.256
2720.1025,100.253
2721.0669,100.253
2722.0310,100.253
2722.9954,100.251
2723.9595,100.245
2724.9238,100.236
2725.8879,100.225
2726.8523,100.216
2727.8164,100.21
2728.7808,100.209
2729.7449,100.211
2730.7092,100.214
2731.6733,100.215
2732.6377,100.213
2733.6018,100.208
2734.5662,100.201
2735.5303,100.194
2736.4946,100.186
2737.4587,100.178
2738.4231,100.172
2739.3872,100.167
2740.3516,100.164
2741.3157,100.165
2742.2800,100.169
2743.2441,100.176
2744.2085,100.185
2745.1726,100.193
2746.1370,100.198
2747.1011,100.197
2748.0654,100.19
2749.0295,100.179
2749.9939,100.167
2750.9580,100.159
2751.9224,100.155
2752.8865,100.155
2753.8508,100.157
2754.8149,100.155
2755.7793,100.148
2756.7434,100.136
2757.7078,100.119
2758.6719,100.1
2759.6362,100.083
2760.6003,100.07
2761.5647,100.06
2762.5288,100.052
2763.4932,100.043
2764.4573,100.031
2765.4216,100.015
2766.3857,99.9974
2767.3501,99.9799
2768.3142,99.9652
2769.2786,99.9538
2770.2427,99.9435
2771.2070,99.9302
2772.1711,99.9103
2773.1355,99.8825
2774.0996,99.8486
2775.0640,99.8124
2776.0281,99.777
2776.9924,99.7439
2777.9565,99.7113
2778.9209,99.677
2779.8850,99.6397
2780.8494,99.5982
2781.8135,99.5554
2782.7778,99.5145
2783.7419,99.4784
2784.7063,99.4476
2785.6704,99.4206
2786.6348,99.3947
2787.5989,99.3676
2788.5632,99.3381
2789.5273,99.3073
2790.4917,99.2774
2791.4558,99.2509
2792.4202,99.2292
2793.3843,99.2117
2794.3486,99.196
2795.3127,99.1786
2796.2771,99.157
2797.2412,99.1298
2798.2056,99.0976
2799.1697,99.0614
2800.1340,99.0225
2801.0981,98.982
2802.0625,98.9404
2803.0266,98.8988
2803.9910,98.8581
2804.9551,98.8193
2805.9194,98.782
2806.8835,98.744
2807.8479,98.7018
2808.8120,98.6517
2809.7764,98.5914
2810.7405,98.5208
2811.7048,98.4426
2812.6689,98.3607
2813.6333,98.2788
2814.5974,98.1982
2815.5618,98.1175
2816.5259,98.0326
2817.4902,97.9385
2818.4543,97.831
2819.4187,97.708
2820.3828,97.5697
2821.3472,97.4177
2822.3113,97.2538
2823.2756,97.0789
2824.2397,96.8931
2825.2041,96.6959
2826.1682,96.4871
2827.1326,96.2671
2828.0967,96.0364
2829.0610,95.7955
2830.0251,95.5447
2830.9895,95.2841
2831.9536,95.0146
2832.9180,94.7378
2833.8821,94.4559
2834.8464,94.1714
2835.8105,93.8866
2836.7749,93.604
2837.7390,93.3259
2838.7034,93.0551
2839.6675,92.7932
2840.6318,92.5396
2841.5959,92.2901
2842.5603,92.0378
2843.5244,91.7761
2844.4888,91.5033
2845.4529,91.2267
2846.4172,90.9622
2847.3813,90.7304
2848.3457,90.5485
2849.3098,90.4231
2850.2742,90.3474
2851.2383,90.3042
2852.2026,90.273
2853.1667,90.237
2854.1311,90.1875
2855.0952,90.1229
2856.0596,90.0454
2857.0237,89.9568
2857.9880,89.857
2858.9521,89.7445
2859.9165,89.618
2860.8806,89.4782
2861.8450,89.3274
2862.8091,89.1687
2863.7734,89.0053
2864.7375,88.8401
2865.7019,88.676
2866.6660,88.5157
2867.6304,88.3616
2868.5945,88.2153
2869.5588,88.0769
2870.5229,87.9452
2871.4873,87.8187
2872.4514,87.6958
2873.4158,87.5753
2874.3799,87.4561
2875.3442,87.3374
2876.3083,87.2179
2877.2727,87.097
2878.2368,86.975
2879.2012,86.8541
2880.1653,86.7382
2881.1296,86.6322
2882.0938,86.5406
2883.0581,86.4662
2884.0222,86.4096
2884.9866,86.3687
2885.9507,86.3397
2886.9150,86.3169
2887.8792,86.2942
2888.8435,86.2656
2889.8076,86.2278
2890.7720,86.1813
2891.7361,86.13
2892.7004,86.0776
2893.6646,86.0226
2894.6289,85.9562
2895.5930,85.8647
2896.5574,85.7373
2897.5215,85.5748
2898.4858,85.393
2899.4500,85.2177
2900.4143,85.073
2901.3784,84.97
2902.3428,84.9023
2903.3069,84.85
2904.2712,84.7897
2905.2354,84.704
2906.1997,84.5857
2907.1638,84.4352
2908.1282,84.257
2909.0923,84.0561
2910.0566,83.8374
2911.0208,83.6072
2911.9851,83.374
2912.9492,83.1481
2913.9136,82.9403
2914.8777,82.7591
2915.8420,82.6102
2916.8062,82.4948
2917.7705,82.41
2918.7346,82.3499
2919.6990,82.3068
2920.6631,82.2739
2921.6274,82.2473
2922.5916,82.2262
2923.5559,82.2123
2924.5200,82.2078
2925.4844,82.2134
2926.4485,82.2276
2927.4128,82.2474
2928.3770,82.2698
2929.3413,82.2934
2930.3054,82.3188
2931.2698,82.3488
2932.2339,82.3871
2933.1982,82.4377
2934.1624,82.5039
2935.1267,82.5885
2936.0908,82.6931
2937.0552,82.8179
2938.0193,82.9613
2938.9836,83.1211
2939.9478,83.2948
2940.9121,83.4812
2941.8762,83.6805
2942.8406,83.8924
2943.8047,84.1141
2944.7690,84.3392
2945.7332,84.5586
2946.6975,84.763
2947.6616,84.947
2948.6260,85.1102
2949.5901,85.2569
2950.5544,85.393
2951.5186,85.523
2952.4829,85.6486
2953.4470,85.7691
2954.4114,85.8829
2955.3755,85.9894
2956.3398,86.0898
2957.3040,86.1862
2958.2683,86.2806
2959.2324,86.3732
2960.1968,86.4626
2961.1609,86.5458
2962.1252,86.6206
2963.0894,86.6864
2964.0537,86.7452
2965.0178,86.8007
2965.9822,86.8566
2966.9463,86.9163
2967.9106,86.9825
2968.8748,87.0586
2969.8391,87.149
2970.8032,87.2582
2971.7676,87.3896
2972.7317,87.5434
2973.6960,87.717
2974.6602,87.9063
2975.6245,88.1077
2976.5886,88.3192
2977.5530,88.5395
2978.5171,88.7677
2979.4814,89.0016
2980.4456,89.2374
2981.4099,89.4691
2982.3740,89.6889
2983.3384,89.8897
2984.3025,90.07
2985.2668,90.2386
2986.2310,90.4163
2987.1953,90.6302
2988.1594,90.9021
2989.1238,91.2358
2990.0879,91.6123
2991.0522,91.9963
2992.0164,92.3515
2992.9807,92.656
2993.9448,92.9092
2994.9092,93.1279
2995.8733,93.3345
2996.8376,93.5455
2997.8018,93.7666
2998.7661,93.9955
2999.7302,94.2274
3000.6946,94.4603
3001.6587,94.6963
3002.6230,94.9396
3003.5872,95.1933
3004.5515,95.4569
3005.5156,95.7258
3006.4800,95.9922
3007.4441,96.2478
3008.4084,96.4869
3009.3726,96.7092
3010.3369,96.9201
3011.3010,97.128
3012.2654,97.3394
3013.2295,97.5555
3014.1938,97.771
3015.1580,97.9775
3016.1223,98.168
3017.0864,98.34
3018.0508,98.4955
3019.0149,98.6386
3019.9792,98.7728
3020.9434,98.8998
3021.9077,99.02
3022.8718,99.1343
3023.8362,99.2435
3024.8003,99.3483
3025.7646,99.4476
3026.7288,99.5387
3027.6931,99.6194
3028.6572,99.6894
3029.6216,99.7518
3030.5857,99.8119
3031.5500,99.8745
3032.5142,99.9419
3033.4785,100.013
3034.4426,100.084
3035.4070,100.126
3036.3711,100.159
3037.3354,100.186
3038.2996,100.207
3039.2639,100.22
3040.2280,100.224
3041.1924,100.218
3042.1565,100.201
3043.1208,100.174
3044.0850,100.14
3045.0493,100.104
3046.0134,100.07
3046.9778,100.041
3047.9419,100.015
3048.9063,99.9875
3049.8704,99.9506
3050.8347,99.9006
3051.7988,99.839
3052.7632,99.7731
3053.7273,99.7131
3054.6917,99.6669
3055.6558,99.6363
3056.6201,99.6159
3057.5842,99.5964
3058.5486,99.5685
3059.5127,99.5267
3060.4771,99.4706
3061.4412,99.4039
3062.4055,99.3327
3063.3696,99.2637
3064.3340,99.2023
3065.2981,99.1513
3066.2625,99.1105
3067.2266,99.0768
3068.1909,99.0461
3069.1550,99.0147
3070.1194,98.9808
3071.0835,98.9439
3072.0479,98.9042
3073.0120,98.8612
3073.9763,98.8137
3074.9404,98.7607
3075.9048,98.7027
3076.8689,98.642
3077.8333,98.5824
3078.7974,98.5274
3079.7617,98.4792
3080.7258,98.4373
3081.6902,98.3994
3082.6543,98.3623
3083.6187,98.323
3084.5828,98.2799
3085.5471,98.2329
3086.5112,98.1832
3087.4756,98.1325
3088.4397,98.0811
3089.4041,98.0279
3090.3682,97.9703
3091.3325,97.906
3092.2966,97.834
3093.2610,97.7558
3094.2251,97.6748
3095.1895,97.5945
3096.1536,97.5181
3097.1179,97.447
3098.0820,97.381
3099.0464,97.319
3100.0105,97.259
3100.9749,97.1992
3101.9390,97.1384
3102.9033,97.0768
3103.8674,97.016
3104.8318,96.9579
3105.7959,96.9027
3106.7603,96.8483
3107.7244,96.7903
3108.6887,96.7245
3109.6528,96.6484
3110.6172,96.563
3111.5813,96.4717
3112.5457,96.3789
3113.5098,96.2885
3114.4741,96.203
3115.4382,96.1238
3116.4026,96.051
3117.3667,95.984
3118.3311,95.9218
3119.2952,95.8632
3120.2595,95.8069
3121.2236,95.7513
3122.1880,95.6953
3123.1521,95.6375
3124.1165,95.5762
3125.0806,95.5102
3126.0449,95.4382
3127.0090,95.3595
3127.9734,95.2745
3128.9375,95.1852
3129.9019,95.0952
3130.8660,95.0094
3131.8303,94.9316
3132.7944,94.8636
3133.7588,94.8033
3134.7229,94.7462
3135.6873,94.6868
3136.6514,94.6217
3137.6157,94.5499
3138.5798,94.4731
3139.5442,94.3933
3140.5083,94.3125
3141.4727,94.2316
3142.4368,94.1507
3143.4011,94.0695
3144.3652,93.9878
3145.3296,93.9053
3146.2937,93.8226
3147.2581,93.7407
3148.2222,93.6608
3149.1865,93.5835
3150.1506,93.5075
3151.1150,93.4306
3152.0791,93.3505
3153.0435,93.2671
3154.0076,93.1823
3154.9719,93.099
3155.9360,93.0189
3156.9004,92.9412
3157.8645,92.8635
3158.8289,92.7838
3159.7930,92.7015
3160.7573,92.6177
3161.7214,92.5339
3162.6858,92.4502
3163.6499,92.3659
3164.6143,92.2802
3165.5784,92.1939
3166.5427,92.1094
3167.5068,92.0286
3168.4712,91.952
3169.4353,91.9316
3170.3997,91.8533
3171.3638,91.7679
3172.3281,91.6746
3173.2922,91.5751
3174.2566,91.473
3175.2207,91.3716
3176.1851,91.2734
3177.1492,91.1799
3178.1135,91.0919
3179.0776,91.0096
3180.0420,90.9322
3181.0061,90.8581
3181.9705,90.7856
3182.9346,90.7139
3183.8989,90.6427
3184.8630,90.5721
3185.8274,90.5009
3186.7915,90.4263
3187.7559,90.3451
3188.7200,90.2562
3189.6843,90.1615
3190.6484,90.066
3191.6128,89.9745
3192.5769,89.8895
3193.5413,89.809
3194.5054,89.729
3195.4697,89.6458
3196.4338,89.5593
3197.3982,89.4727
3198.3623,89.3908
3199.3267,89.3169
3200.2908,89.2508
3201.2551,89.1894
3202.2192,89.1276
3203.1836,89.0612
3204.1477,88.988
3205.1121,88.9083
3206.0762,88.8244
3207.0405,88.7392
3208.0046,88.6549
3208.9690,88.5721
3209.9331,88.4903
3210.8975,88.4084
3211.8616,88.3266
3212.8259,88.2463
3213.7900,88.1695
3214.7544,88.0978
3215.7185,88.0312
3216.6829,87.9683
3217.6470,87.9069
3218.6113,87.8454
3219.5754,87.7828
3220.5398,87.7183
3221.5039,87.6516
3222.4683,87.5828
3223.4324,87.5128
3224.3967,87.4428
3225.3608,87.3742
3226.3252,87.3071
3227.2893,87.2409
3228.2537,87.1748
3229.2178,87.1088
3230.1821,87.0443
3231.1462,86.9833
3232.1106,86.9267
3233.0747,86.8735
3234.0391,86.821
3235.0032,86.7665
3235.9675,86.7086
3236.9316,86.6478
3237.8960,86.585
3238.8601,86.5209
3239.8245,86.4548
3240.7886,86.3866
3241.7529,86.3176
3242.7170,86.2519
3243.6814,86.1943
3244.6455,86.1478
3245.6099,86.1108
3246.5740,86.0769
3247.5383,86.0382
3248.5024,85.9892
3249.4668,85.9296
3250.4309,85.8641
3251.3953,85.7991
3252.3594,85.7398
3253.3237,85.6871
3254.2878,85.6381
3255.2522,85.5887
3256.2163,85.537
3257.1807,85.4845
3258.1448,85.4352
3259.1091,85.3921
3260.0732,85.3544
3261.0376,85.318
3262.0017,85.2773
3262.9661,85.2286
3263.9302,85.1724
3264.8945,85.1129
3265.8586,85.0547
3266.8230,85.0005
3267.7871,84.9492
3268.7515,84.8977
3269.7156,84.8435
3270.6799,84.7867
3271.6440,84.7302
3272.6084,84.678
3273.5725,84.6334
3274.5369,84.5977
3275.5010,84.5696
3276.4653,84.5462
3277.4294,84.5237
3278.3938,84.4979
3279.3579,84.4658
3280.3223,84.426
3281.2864,84.3805
3282.2507,84.3332
3283.2148,84.2882
3284.1792,84.2474
3285.1433,84.209
3286.1077,84.1689
3287.0718,84.1236
3288.0361,84.0724
3289.0002,84.0185
3289.9646,83.9668
3290.9287,83.9217
3291.8931,83.8847
3292.8572,83.8549
3293.8215,83.8296
3294.7856,83.8058
3295.7500,83.7809
3296.7141,83.752
3297.6785,83.7167
3298.6426,83.674
3299.6069,83.6256
3300.5710,83.5756
3301.5354,83.5292
3302.4995,83.4899
3303.4639,83.4582
3304.4280,83.4312
3305.3923,83.4052
3306.3564,83.3776
3307.3208,83.3484
3308.2849,83.3196
3309.2493,83.2935
3310.2134,83.2708
3311.1777,83.2503
3312.1418,83.2299
3313.1062,83.2081
3314.0703,83.1848
3315.0347,83.1611
3315.9988,83.1372
3316.9631,83.1118
3317.9272,83.0823
3318.8916,83.0461
3319.8557,83.0036
3320.8201,82.9585
3321.7842,82.9163
3322.7485,82.8814
3323.7126,82.8547
3324.6770,82.8333
3325.6411,82.8133
3326.6055,82.7929
3327.5696,82.7734
3328.5339,82.7574
3329.4980,82.7457
3330.4624,82.7352
3331.4265,82.7202
3332.3909,82.6954
3333.3550,82.6597
3334.3193,82.6169
3335.2834,82.5743
3336.2478,82.5384
3337.2119,82.5121
3338.1763,82.4946
3339.1404,82.4828
3340.1047,82.4735
3341.0688,82.4643
3342.0332,82.4534
3342.9973,82.4392
3343.9617,82.4203
3344.9258,82.3969
3345.8901,82.3707
3346.8542,82.3453
3347.8186,82.3241
3348.7827,82.3096
3349.7471,82.3012
3350.7112,82.2963
3351.6755,82.2909
3352.6396,82.2812
3353.6040,82.2653
3354.5681,82.2438
3355.5325,82.2197
3356.4966,82.197
3357.4609,82.1786
3358.4250,82.165
3359.3894,82.1535
3360.3535,82.1404
3361.3179,82.1231
3362.2820,82.1024
3363.2463,82.0826
3364.2104,82.069
3365.1748,82.0651
3366.1389,82.0705
3367.1033,82.0812
3368.0674,82.0922
3369.0317,82.1002
3369.9958,82.1044
3370.9602,82.1057
3371.9243,82.1044
3372.8887,82.0997
3373.8528,82.091
3374.8171,82.0789
3375.7813,82.0671
3376.7456,82.0602
3377.7097,82.0611
3378.6741,82.069
3379.6382,82.0789
3380.6025,82.085
3381.5667,82.0839
3382.5310,82.077
3383.4951,82.0696
3384.4595,82.0677
3385.4236,82.0745
3386.3879,82.0896
3387.3521,82.1094
3388.3164,82.1305
3389.2805,82.1508
3390.2449,82.1695
3391.2090,82.1864
3392.1733,82.2019
3393.1375,82.2173
3394.1018,82.2354
3395.0659,82.2605
3396.0303,82.2952
3396.9944,82.3386
3397.9587,82.3843
3398.9229,82.4235
3399.8872,82.45
3400.8513,82.4635
3401.8157,82.4707
3402.7798,82.4816
3403.7441,82.5044
3404.7083,82.542
3405.6726,82.5918
3406.6367,82.6473
3407.6011,82.7013
3408.5652,82.748
3409.5295,82.7836
3410.4937,82.8075
3411.4580,82.8222
3412.4221,82.8323
3413.3865,82.8433
3414.3506,82.8591
3415.3149,82.8806
3416.2791,82.9057
3417.2434,82.9323
3418.2075,82.9611
3419.1719,82.9963
3420.1360,83.0439
3421.1003,83.1064
3422.0645,83.1804
3423.0288,83.257
3423.9929,83.3269
3424.9573,83.3849
3425.9214,83.4317
3426.8857,83.4729
3427.8499,83.5156
3428.8142,83.5647
3429.7783,83.6213
3430.7427,83.683
3431.7068,83.7472
3432.6711,83.8123
3433.6353,83.8781
3434.5996,83.9437
3435.5637,84.0065
3436.5281,84.062
3437.4922,84.1062
3438.4565,84.1377
3439.4207,84.159
3440.3850,84.1751
3441.3491,84.1922
3442.3135,84.2162
3443.2776,84.2515
3444.2419,84.3018
3445.2061,84.3692
3446.1704,84.4533
3447.1345,84.5496
3448.0989,84.6505
3449.0630,84.7484
3450.0273,84.8391
3450.9915,84.9222
3451.9558,84.9984
3452.9199,85.0674
3453.8843,85.1279
3454.8484,85.1795
3455.8127,85.2245
3456.7769,85.2678
3457.7412,85.3152
3458.7053,85.3707
3459.6697,85.4347
3460.6338,85.5038
3461.5981,85.5733
3462.5623,85.6399
3463.5266,85.7042
3464.4907,85.7702
3465.4551,85.8434
3466.4192,85.9264
3467.3835,86.0161
3468.3477,86.104
3469.3120,86.1808
3470.2761,86.2426
3471.2405,86.2942
3472.2046,86.3476
3473.1689,86.4154
3474.1331,86.5022
3475.0974,86.601
3476.0615,86.6966
3477.0259,86.7748
3477.9900,86.8308
3478.9543,86.8714
3479.9185,86.9104
3480.8828,86.9609
3481.8469,87.0273
3482.8113,87.1043
3483.7754,87.1837
3484.7397,87.2611
3485.7039,87.3394
3486.6682,87.4248
3487.6323,87.5216
3488.5967,87.6272
3489.5608,87.7323
3490.5251,87.8262
3491.4893,87.9033
3492.4536,87.966
3493.4177,88.0238
3494.3821,88.0875
3495.3462,88.1628
3496.3105,88.2454
3497.2747,88.3233
3498.2390,88.3857
3499.2031,88.4309
3500.1675,88.4705
3501.1316,88.5258
3502.0959,88.6169
3503.0601,88.7476
3504.0244,88.8993
3504.9885,89.0441
3505.9529,89.1637
3506.9170,89.257
3507.8813,89.337
3508.8455,89.4215
3509.8098,89.5238
3510.7739,89.6447
3511.7383,89.774
3512.7024,89.8985
3513.6667,90.0103
3514.6309,90.1078
3515.5952,90.1937
3516.5593,90.2719
3517.5237,90.3458
3518.4878,90.4176
3519.4521,90.4888
3520.4163,90.5602
3521.3806,90.6326
3522.3447,90.7055
3523.3091,90.7782
3524.2732,90.8507
3525.2375,90.9268
3526.2017,91.0153
3527.1660,91.1268
3528.1301,91.2662
3529.0945,91.4265
3530.0586,91.5908
3531.0229,91.7422
3531.9871,91.8729
3532.9514,91.9866
3533.9155,92.0947
3534.8799,92.2101
3535.8440,92.34
3536.8083,92.4798
3537.7725,92.6145
3538.7368,92.727
3539.7009,92.8077
3540.6653,92.8584
3541.6294,92.8913
3542.5938,92.9276
3543.5579,92.9948
3544.5222,93.1156
3545.4863,93.2895
3546.4507,93.486
3547.4148,93.6657
3548.3792,93.8091
3549.3433,93.9239
3550.3076,94.0333
3551.2717,94.1599
3552.2361,94.3133
3553.2002,94.4846
3554.1646,94.6532
3555.1287,94.8019
3556.0930,94.9258
3557.0571,95.0276
3558.0215,95.1102
3558.9856,95.1738
3559.9500,95.2182
3560.9141,95.2456
3561.8784,95.2625
3562.8425,95.277
3563.8069,95.2992
3564.7710,95.3539
3565.7354,95.4913
3566.6995,95.747
3567.6638,96.0696
3568.6279,96.3488
3569.5923,96.5259
3570.5564,96.6224
3571.5208,96.6864
3572.4849,96.75
3573.4492,96.8215
3574.4133,96.8973
3575.3777,96.9742
3576.3418,97.0536
3577.3062,97.1377
3578.2703,97.2248
3579.2346,97.3073
3580.1987,97.3762
3581.1631,97.4289
3582.1272,97.4722
3583.0916,97.5161
3584.0557,97.5656
3585.0200,97.6248
3585.9841,97.7088
3586.9485,97.8329
3587.9126,97.9684
3588.8770,98.052
3589.8411,98.0561
3590.8054,98.0101
3591.7695,97.9605
3592.7339,97.9375
3593.6980,97.9489
3594.6624,97.9857
3595.6265,98.029
3596.5908,98.0643
3597.5549,98.0962
3598.5193,98.1471
3599.4834,98.2386
3600.4478,98.372
3601.4119,98.5253
3602.3762,98.6721
3603.3403,98.8022
3604.3047,98.9222
3605.2688,99.0433
3606.2332,99.1742
3607.1973,99.3035
3608.1616,99.4278
3609.1257,99.5214
3610.0901,99.5562
3611.0542,99.5267
3612.0186,99.4541
3612.9829,99.3733
3613.9470,99.3165
3614.9114,99.302
3615.8755,99.3332
3616.8398,99.4037
3617.8040,99.5026
3618.7683,99.6108
3619.7324,99.6865
3620.6968,99.6815
3621.6609,99.5914
3622.6252,99.4724
3623.5894,99.4005
3624.5537,99.4199
3625.5178,99.5197
3626.4822,99.6523
3627.4463,99.7879
3628.4106,99.9348
3629.3748,100.062
3630.3391,100.097
3631.3032,100.037
3632.2676,99.9607
3633.2317,99.9363
3634.1960,99.979
3635.1602,100.059
3636.1245,100.136
3637.0886,100.183
3638.0530,100.199
3639.0171,100.199
3639.9814,100.195
3640.9456,100.191
3641.9099,100.191
3642.8740,100.201
3643.8384,100.227
3644.8025,100.247
3645.7668,100.208
3646.7310,100.062
3647.6953,99.9005
3648.6594,99.9655
3649.6238,100.282
3650.5879,100.562
3651.5522,100.645
3652.5164,100.604
3653.4807,100.547
3654.4448,100.526
3655.4092,100.531
3656.3733,100.533
3657.3376,100.508
3658.3018,100.459
3659.2661,100.408
3660.2302,100.384
3661.1946,100.389
3662.1587,100.407
3663.1230,100.421
3664.0872,100.431
3665.0515,100.45
3666.0156,100.481
3666.9800,100.496
3667.9441,100.464
3668.9084,100.395
3669.8726,100.338
3670.8369,100.317
3671.8010,100.318
3672.7654,100.318
3673.7295,100.3
3674.6938,100.279
3675.6580,100.298
3676.6223,100.35
3677.5864,100.376
3678.5508,100.357
3679.5149,100.323
3680.4792,100.299
3681.4434,100.286
3682.4077,100.28
3683.3718,100.288
3684.3362,100.326
3685.3003,100.385
3686.2646,100.412
3687.2288,100.341
3688.1931,100.171
3689.1572,100.008
3690.1216,99.9427
3691.0857,99.9527
3692.0500,99.9826
3693.0142,100.012
3693.9785,100.043
3694.9426,100.078
3695.9070,100.116
3696.8711,100.16
3697.8354,100.211
3698.7996,100.267
3699.7639,100.318
3700.7280,100.358
3701.6924,100.383
3702.6565,100.386
3703.6208,100.367
3704.5850,100.337
3705.5493,100.316
3706.5134,100.31
3707.4778,100.302
3708.4419,100.279
3709.4063,100.279
3710.3704,100.4
3711.3347,100.672
3712.2988,100.962
3713.2632,101.118
3714.2273,101.113
3715.1917,101.01
3716.1558,100.873
3717.1201,100.732
3718.0842,100.585
3719.0486,100.424
3720.0127,100.254
3720.9771,100.091
3721.9412,99.9565
3722.9055,99.8671
3723.8696,99.8295
3724.8340,99.8359
3725.7981,99.866
3726.7625,99.9
3727.7266,99.934
3728.6909,99.9753
3729.6550,100.023
3730.6194,100.053
3731.5835,100.023
3732.5479,99.915
3733.5120,99.7896
3734.4763,99.7725
3735.4404,99.9011
3736.4048,100.051
3737.3689,100.111
3738.3333,100.11
3739.2974,100.163
3740.2617,100.355
3741.2258,100.683
3742.1902,101.042
3743.1543,101.272
3744.1187,101.26
3745.0828,101.041
3746.0471,100.704
3747.0112,100.38
3747.9756,100.158
3748.9397,100.076
3749.9041,100.16
3750.8682,100.379
3751.8325,100.573
3752.7966,100.593
3753.7610,100.455
3754.7251,100.273
3755.6895,100.136
3756.6536,100.075
3757.6179,100.087
3758.5820,100.151
3759.5464,100.231
3760.5105,100.289
3761.4749,100.314
3762.4390,100.319
3763.4033,100.322
3764.3674,100.332
3765.3318,100.344
3766.2959,100.352
3767.2603,100.355
3768.2244,100.361
3769.1887,100.38
3770.1528,100.415
3771.1172,100.447
3772.0813,100.46
3773.0457,100.449
3774.0098,100.429
3774.9741,100.412
3775.9382,100.399
3776.9026,100.383
3777.8667,100.365
3778.8311,100.352
3779.7952,100.338
3780.7595,100.306
3781.7236,100.253
3782.6880,100.195
3783.6521,100.155
3784.6165,100.157
3785.5806,100.204
3786.5449,100.279
3787.5090,100.355
3788.4734,100.411
3789.4375,100.443
3790.4019,100.46
3791.3660,100.466
3792.3303,100.456
3793.2944,100.413
3794.2588,100.33
3795.2229,100.222
3796.1873,100.126
3797.1514,100.074
3798.1157,100.071
3799.0798,100.09
3800.0442,100.104
3801.0083,100.103
3801.9727,100.097
3802.9368,100.099
3803.9011,100.132
3804.8652,100.217
3805.8296,100.344
3806.7937,100.466
3807.7581,100.517
3808.7222,100.471
3809.6865,100.369
3810.6506,100.296
3811.6150,100.307
3812.5791,100.391
3813.5435,100.475
3814.5076,100.482
3815.4719,100.387
3816.4360,100.227
3817.4004,100.063
3818.3645,99.9494
3819.3289,99.917
3820.2930,99.9664
3821.2573,100.048
3822.2214,100.083
3823.1858,100.037
3824.1499,99.9469
3825.1143,99.8796
3826.0784,99.8778
3827.0427,99.9437
3828.0068,100.048
3828.9712,100.149
3829.9353,100.217
3830.8997,100.244
3831.8638,100.238
3832.8281,100.217
3833.7922,100.189
3834.7566,100.146
3835.7207,100.07
3836.6851,99.9601
3837.6492,99.8488
3838.6135,99.7839
3839.5776,99.7861
3840.5420,99.8438
3841.5061,99.9364
3842.4705,100.041
3843.4346,100.124
3844.3989,100.152
3845.3630,100.112
3846.3274,100.036
3847.2915,99.9894
3848.2559,100.041
3849.2200,100.22
3850.1843,100.487
3851.1484,100.745
3852.1128,100.93
3853.0769,101.061
3854.0413,101.093
3855.0054,100.92
3855.9697,100.599
3856.9338,100.291
3857.8982,100.106
3858.8623,100.054
3859.8267,100.074
3860.7908,100.084
3861.7551,100.041
3862.7192,99.9756
3863.6836,99.9563
3864.6477,100.018
3865.6121,100.138
3866.5762,100.262
3867.5405,100.34
3868.5046,100.341
3869.4690,100.273
3870.4331,100.182
3871.3975,100.118
3872.3616,100.097
3873.3259,100.103
3874.2900,100.122
3875.2544,100.15
3876.2185,100.183
3877.1829,100.211
3878.1470,100.213
3879.1113,100.178
3880.0754,100.121
3881.0398,100.08
3882.0039,100.09
3882.9683,100.162
3883.9324,100.275
3884.8967,100.384
3885.8608,100.441
3886.8252,100.426
3887.7893,100.352
3888.7537,100.253
3889.7178,100.158
3890.6821,100.092
3891.6462,100.065
3892.6106,100.066
3893.5747,100.074
3894.5391,100.083
3895.5032,100.104
3896.4675,100.14
3897.4316,100.17
3898.3960,100.175
3899.3601,100.156
3900.3245,100.129
3901.2886,100.107
3902.2529,100.093
3903.2170,100.088
3904.1814,100.091
3905.1455,100.094
3906.1099,100.09
3907.0740,100.088
3908.0383,100.095
3909.0024,100.113
3909.9668,100.132
3910.9309,100.142
3911.8953,100.142
3912.8594,100.138
3913.8237,100.135
3914.7878,100.138
3915.7522,100.146
3916.7163,100.158
3917.6807,100.166
3918.6448,100.152
3919.6091,100.109
3920.5732,100.041
3921.5376,99.9668
3922.5017,99.9073
3923.4661,99.8745
3924.4302,99.8663
3925.3945,99.8669
3926.3586,99.8591
3927.3230,99.8377
3928.2871,99.8112
3929.2515,99.7942
3930.2156,99.8023
3931.1799,99.8447
3932.1440,99.9146
3933.1084,99.9887
3934.0725,100.044
3935.0369,100.074
3936.0010,100.083
3936.9653,100.076
3937.9294,100.056
3938.8938,100.02
3939.8579,99.9713
3940.8223,99.9214
3941.7864,99.8873
3942.7507,99.8792
3943.7148,99.891
3944.6792,99.9064
3945.6433,99.91
3946.6077,99.8959
3947.5718,99.8696
3948.5361,99.8452
3949.5002,99.8359
3950.4646,99.8453
3951.4287,99.8662
3952.3931,99.8883
3953.3572,99.9037
3954.3215,99.9088
3955.2856,99.904
3956.2500,99.8926
3957.2141,99.8801
3958.1785,99.8717
3959.1426,99.872
3960.1069,99.8841
3961.0710,99.9079
3962.0354,99.9397
3962.9995,99.9718
3963.9639,99.9956
3964.9280,100.005
3965.8923,99.9973
3966.8564,99.9761
3967.8208,99.9467
3968.7849,99.9155
3969.7493,99.8869
3970.7134,99.8632
3971.6777,99.8451
3972.6418,99.8332
3973.6062,99.8286
3974.5703,99.8325
3975.5347,99.8442
3976.4988,99.8613
3977.4631,99.8795
3978.4272,99.8943
3979.3916,99.9024
3980.3557,99.902
3981.3201,99.8941
3982.2842,99.8817
3983.2485,99.8689
3984.2126,99.8596
3985.1770,99.8552
3986.1411,99.8549
3987.1055,99.8551
3988.0696,99.8511
3989.0339,99.8391
3989.9980,99.8183
3990.9624,99.7924
3991.9265,99.7683
3992.8909,99.7531
3993.8550,99.7506
3994.8193,99.7594
3995.7834,99.7734
3996.7478,99.7881
3997.7119,99.798
3998.6763,99.8023
3999.6404,99.8043
4000.6047,99.608

##### Extended Information
[Comments]
Sample name
Comment
User
Division
Company,HANKYONG

[Detailed Information]
Creation date,4/24/2024 11:39 AM

Data array type,Linear data array
Horizontal axis,Wavenumber [cm-1]
Vertical axis,%T
Start,649.893 cm-1
End,4000.6 cm-1
Data interval,0.964233 cm-1
Data points,3476    

[Measurement Information]
Model Name,FT/IR-4700typeA
Serial Number,D056761788

Accessory,ATR PRO ONE
Accessory S/N,C174761809
Incident angle,45 deg

Measurement Date,4/24/2024 11:39 AM

Light Source,Standard
Detector,TGS
Accumulation,32
Resolution,4 cm-1
Zero Filling,On
Apodization,Cosine
Gain,Auto (4)
Aperture,Auto (7.1 mm)
Scanning Speed,Auto (2 mm/sec)
Filter,Auto (30000 Hz)

