TITLE,
DATA TYPE,INFRARED SPECTRUM
ORIGIN,JASCO
OWNER,
DATE,24/04/24
TIME,10:34:10
SPECTROMETER/DATA SYSTEM,
LOCALE,1033
RESOLUTION,
DELTAX,0.964233
XUNITS,1/CM
YUNITS,TRANSMITTANCE
FIRSTX,  649.8934
LASTX, 4000.6047
NPOINTS,    3476
FIRSTY,    97.89992
MAXY,   101.18811
MINY,    41.95182
XYDATA
649.8934,97.8999
650.8576,97.9964
651.8218,98.139
652.7861,98.2981
653.7503,98.4458
654.7145,98.3765
655.6788,98.2387
656.6430,98.0643
657.6072,97.872
658.5715,97.6925
659.5357,97.5562
660.4999,97.4728
661.4642,97.4167
662.4284,97.3354
663.3926,97.1749
664.3569,96.898
665.3211,96.4902
666.2853,95.9766
667.2496,95.4691
668.2138,95.1772
669.1780,95.2167
670.1423,95.4384
671.1065,95.6392
672.0707,95.7503
673.0350,95.7977
673.9992,95.8305
674.9634,95.8876
675.9277,95.9849
676.8919,96.1179
677.8561,96.2756
678.8204,96.456
679.7846,96.6659
680.7488,96.9094
681.7131,97.1791
682.6773,97.4596
683.6415,97.7389
684.6058,98.0169
685.5700,98.2985
686.5342,98.5764
687.4985,98.82
688.4627,98.9809
689.4269,99.0151
690.3912,98.9102
691.3554,98.7117
692.3196,98.5366
693.2839,98.5352
694.2481,98.7767
695.2123,99.1752
696.1766,99.5701
697.1408,99.8433
698.1050,99.9579
699.0693,99.9424
700.0335,99.8577
700.9977,99.7631
701.9620,99.6927
702.9262,99.6534
703.8904,99.638
704.8547,99.641
705.8189,99.6617
706.7831,99.6977
707.7474,99.7377
708.7116,99.7626
709.6758,99.7535
710.6401,99.7022
711.6043,99.613
712.5685,99.4987
713.5328,99.3718
714.4970,99.2369
715.4612,99.3529
716.4255,99.1739
717.3897,98.9925
718.3539,98.832
719.3182,98.7228
720.2824,98.6889
721.2466,98.7337
722.2109,98.8371
723.1751,98.9656
724.1393,99.0867
725.1036,99.1785
726.0678,99.2319
727.0320,99.2499
727.9963,99.2447
728.9605,99.2341
729.9247,99.2357
730.8890,99.2604
731.8532,99.3427
732.8174,99.4774
733.7817,99.5976
734.7459,99.6782
735.7101,99.7001
736.6744,99.655
737.6386,99.5474
738.6028,99.3916
739.5671,99.208
740.5313,99.0185
741.4955,98.8417
742.4598,98.6901
743.4240,98.5693
744.3882,98.4789
745.3525,98.4143
746.3167,98.3698
747.2809,98.3407
748.2452,98.3238
749.2094,98.3177
750.1736,98.3219
751.1379,98.3361
752.1021,98.36
753.0663,98.3932
754.0306,98.435
754.9948,98.4833
755.9590,98.534
756.9233,98.5806
757.8875,98.6153
758.8517,98.6318
759.8160,98.6276
760.7802,98.6056
761.7444,98.5729
762.7087,98.5389
763.6729,98.5132
764.6371,98.5048
765.6014,98.5223
766.5656,98.5729
767.5298,98.6595
768.4941,98.7765
769.4583,98.9085
770.4225,99.0329
771.3868,99.1266
772.3510,99.1739
773.3152,99.1705
774.2795,99.1236
775.2437,99.0469
776.2079,98.9559
777.1722,98.8643
778.1364,98.7814
779.1006,98.7105
780.0649,98.6474
781.0291,98.5811
781.9933,98.4984
782.9576,98.391
783.9218,98.2616
784.8860,98.1241
785.8503,97.9967
786.8145,97.8919
787.7787,97.8097
788.7430,97.74
789.7072,97.6701
790.6714,97.5947
791.6357,97.5184
792.5999,97.452
793.5641,97.4033
794.5284,97.3714
795.4926,97.347
796.4568,97.3175
797.4211,97.2741
798.3853,97.2144
799.3495,97.1402
800.3138,97.0528
801.2780,96.9501
802.2422,96.8266
803.2065,96.677
804.1707,96.4993
805.1349,96.2966
806.0992,96.076
807.0634,95.8448
808.0276,95.6074
808.9919,95.3629
809.9561,95.1073
810.9203,94.8371
811.8846,94.5541
812.8488,94.2681
813.8130,93.9954
814.7773,93.7527
815.7415,93.5519
816.7057,93.3961
817.6700,93.2806
818.6342,93.1974
819.5984,93.1399
820.5627,93.1059
821.5269,93.0968
822.4911,93.1149
823.4554,93.1599
824.4196,93.2267
825.3839,93.3053
826.3481,93.3825
827.3123,93.4445
828.2766,93.4795
829.2408,93.4786
830.2050,93.4352
831.1693,93.3433
832.1335,93.1965
833.0977,92.9892
834.0620,92.7201
835.0262,92.3955
835.9904,92.0295
836.9547,91.6407
837.9189,91.2462
838.8831,90.8553
839.8474,90.4679
840.8116,90.0781
841.7758,89.6807
842.7401,89.2772
843.7043,88.8789
844.6685,88.5032
845.6328,88.1679
846.5970,87.8843
847.5612,87.6537
848.5255,87.4688
849.4897,87.3187
850.4539,87.1946
851.4182,87.0928
852.3824,87.0139
853.3466,86.9589
854.3109,86.925
855.2751,86.904
856.2393,86.8849
857.2036,86.8591
858.1678,86.8248
859.1320,86.7881
860.0963,86.7604
861.0605,86.7529
862.0247,86.7737
862.9890,86.8274
863.9532,86.9174
864.9174,87.0482
865.8817,87.2252
866.8459,87.4519
867.8101,87.7274
868.7744,88.0472
869.7386,88.4047
870.7028,88.7918
871.6671,89.195
872.6313,89.5892
873.5955,89.9362
874.5598,90.1936
875.5240,90.3334
876.4882,90.3594
877.4525,90.3117
878.4167,90.2498
879.3809,90.2255
880.3452,90.2589
881.3094,90.3343
882.2736,90.4159
883.2379,90.4704
884.2021,90.4812
885.1663,90.4466
886.1306,90.3685
887.0948,90.246
888.0590,90.0793
889.0233,89.8805
889.9875,89.6791
890.9517,89.5139
891.9160,89.414
892.8802,89.3835
893.8444,89.3985
894.8087,89.421
895.7729,89.418
896.7371,89.3738
897.7014,89.2907
898.6656,89.1806
899.6298,89.0553
900.5941,88.9227
901.5583,88.7875
902.5225,88.6544
903.4868,88.5288
904.4510,88.4143
905.4152,88.3108
906.3795,88.214
907.3437,88.1178
908.3079,88.0178
909.2722,87.9143
910.2364,87.8131
911.2006,87.724
912.1649,87.6579
913.1291,87.6239
914.0933,87.6265
915.0576,87.6658
916.0218,87.7393
916.9860,87.8442
917.9503,87.98
918.9145,88.1479
919.8787,88.3503
920.8430,88.5885
921.8072,88.863
922.7714,89.1736
923.7357,89.5209
924.6999,89.9065
925.6641,90.3323
926.6284,90.8005
927.5926,91.3123
928.5568,91.8683
929.5211,92.468
930.4853,93.109
931.4495,93.787
932.4138,94.495
933.3780,95.224
934.3422,95.963
935.3065,96.6977
936.2707,97.41
937.2349,98.0773
938.1992,98.6764
939.1634,99.1894
940.1276,99.6099
941.0919,99.9446
942.0561,100.209
943.0203,100.417
943.9846,100.577
944.9488,100.683
945.9130,100.724
946.8773,100.693
947.8415,100.588
948.8057,100.447
949.7700,100.337
950.7342,100.201
951.6984,100.049
952.6627,99.8817
953.6269,99.6912
954.5911,99.4642
955.5554,99.188
956.5196,98.8545
957.4838,98.4617
958.4481,98.0128
959.4123,97.5133
960.3765,96.9675
961.3408,96.3784
962.3050,95.7489
963.2692,95.0857
964.2335,94.4017
965.1977,93.7153
966.1619,93.0463
967.1262,92.4106
968.0904,91.8164
969.0546,91.2641
970.0189,90.7488
970.9831,90.2653
971.9473,89.811
972.9116,89.3865
973.8758,88.9931
974.8400,88.6294
975.8043,88.2885
976.7685,87.9574
977.7327,87.6196
978.6970,87.2586
979.6612,86.8616
980.6254,86.42
981.5897,85.929
982.5539,85.3859
983.5181,84.7903
984.4824,84.1462
985.4466,83.465
986.4108,82.7658
987.3751,82.0732
988.3393,81.4123
989.3035,80.8037
990.2678,80.261
991.2320,79.7906
992.1962,79.3932
993.1605,79.0653
994.1247,78.7998
995.0889,78.5867
996.0532,78.4138
997.0174,78.2679
997.9816,78.1346
998.9459,77.9977
999.9101,77.8391
1000.8743,77.6396
1001.8386,77.3801
1002.8028,77.0433
1003.7670,76.6142
1004.7313,76.0789
1005.6955,75.4253
1006.6597,74.6435
1007.6240,73.7287
1008.5882,72.6819
1009.5524,71.5112
1010.5167,70.2301
1011.4809,68.857
1012.4451,67.4132
1013.4094,65.9206
1014.3736,64.3981
1015.3378,62.8596
1016.3021,61.3155
1017.2663,59.778
1018.2305,58.2648
1019.1948,56.795
1020.1590,55.3759
1021.1232,53.9922
1022.0875,52.6071
1023.0517,51.1851
1024.0160,49.7243
1024.9802,48.278
1025.9445,46.9456
1026.9087,45.8325
1027.8729,44.9992
1028.8372,44.4308
1029.8014,44.0451
1030.7656,43.7333
1031.7299,43.4105
1032.6941,43.0462
1033.6583,42.6646
1034.6226,42.3208
1035.5868,42.0711
1036.5510,41.9518
1037.5153,41.9706
1038.4795,42.1093
1039.4437,42.333
1040.4080,42.6013
1041.3722,42.8817
1042.3364,43.1593
1043.3007,43.4395
1044.2649,43.7412
1045.2291,44.0851
1046.1934,44.484
1047.1576,44.941
1048.1218,45.4552
1049.0861,46.0272
1050.0503,46.6588
1051.0145,47.346
1051.9788,48.0737
1052.9430,48.8185
1053.9072,49.5654
1054.8715,50.3267
1055.8357,51.1488
1056.7999,52.0935
1057.7642,53.1959
1058.7284,54.4208
1059.6926,55.6464
1060.6569,56.6991
1061.6211,57.4293
1062.5853,57.7934
1063.5496,57.8933
1064.5138,57.9413
1065.4780,58.1642
1066.4423,58.6926
1067.4065,59.4988
1068.3707,60.4167
1069.3350,61.2294
1070.2992,61.7732
1071.2634,62.0008
1072.2277,61.9758
1073.1919,61.8178
1074.1561,61.6372
1075.1204,61.4964
1076.0846,61.4109
1077.0488,61.3719
1078.0131,61.3708
1078.9773,61.4068
1079.9415,61.4829
1080.9058,61.5973
1081.8700,61.74
1082.8342,61.8953
1083.7985,62.0473
1084.7627,62.186
1085.7269,62.3113
1086.6912,62.4344
1087.6554,62.5741
1088.6196,62.747
1089.5839,62.9548
1090.5481,63.1757
1091.5123,63.3681
1092.4766,63.4849
1093.4408,63.4935
1094.4050,63.3884
1095.3693,63.1898
1096.3335,62.9319
1097.2977,62.6475
1098.2620,62.3588
1099.2262,62.0771
1100.1904,61.8079
1101.1547,61.5565
1102.1189,61.3308
1103.0831,61.1412
1104.0474,60.9997
1105.0116,60.9194
1105.9758,60.9139
1106.9401,60.9965
1107.9043,61.1782
1108.8685,61.4681
1109.8328,61.8741
1110.7970,62.4044
1111.7612,63.0678
1112.7255,63.8712
1113.6897,64.8166
1114.6539,65.8996
1115.6182,67.1107
1116.5824,68.4386
1117.5466,69.8737
1118.5109,71.4095
1119.4751,73.0408
1120.4393,74.7608
1121.4036,76.558
1122.3678,78.4149
1123.3320,80.3084
1124.2963,82.2121
1125.2605,84.0989
1126.2247,85.9439
1127.1890,87.7256
1128.1532,89.4259
1129.1174,91.0288
1130.0817,92.5187
1131.0459,93.8805
1132.0101,95.1008
1132.9744,96.1701
1133.9386,97.0838
1134.9028,97.8424
1135.8671,98.4485
1136.8313,98.9048
1137.7955,99.2141
1138.7598,99.3576
1139.7240,99.2882
1140.6882,99.0935
1141.6525,98.7886
1142.6167,98.3906
1143.5809,97.9172
1144.5452,97.3865
1145.5094,96.8175
1146.4736,96.2309
1147.4379,95.6491
1148.4021,95.0944
1149.3663,94.5883
1150.3306,94.1496
1151.2948,93.7921
1152.2590,93.5223
1153.2233,93.3369
1154.1875,93.2223
1155.1517,93.1565
1156.1160,93.1138
1157.0802,93.0702
1158.0444,93.0065
1159.0087,92.9078
1159.9729,92.7621
1160.9371,92.5591
1161.9014,92.2919
1162.8656,91.9596
1163.8298,91.5688
1164.7941,91.132
1165.7583,90.6633
1166.7225,90.174
1167.6868,89.6706
1168.6510,89.1555
1169.6152,88.6301
1170.5795,88.0951
1171.5437,87.551
1172.5079,86.9954
1173.4722,86.4234
1174.4364,85.8286
1175.4006,85.2068
1176.3649,84.5581
1177.3291,83.8869
1178.2933,83.2005
1179.2576,82.5058
1180.2218,81.8083
1181.1860,81.1117
1182.1503,80.4189
1183.1145,79.7335
1184.0787,79.0597
1185.0430,78.4018
1186.0072,77.7626
1186.9714,77.1428
1187.9357,76.5409
1188.8999,75.9539
1189.8641,75.3795
1190.8284,74.816
1191.7926,74.2631
1192.7568,73.7213
1193.7211,73.1917
1194.6853,72.676
1195.6495,72.1768
1196.6138,71.6969
1197.5780,71.2381
1198.5422,70.7999
1199.5065,70.3863
1200.4707,69.9798
1201.4349,69.5858
1202.3992,69.2051
1203.3634,68.8419
1204.3276,68.502
1205.2919,68.1907
1206.2561,67.9112
1207.2203,67.6642
1208.1846,67.449
1209.1488,67.2651
1210.1130,67.1134
1211.0773,66.9962
1212.0415,66.9157
1213.0057,66.8733
1213.9700,66.8689
1214.9342,66.9014
1215.8984,66.9687
1216.8627,67.0686
1217.8269,67.1978
1218.7911,67.3518
1219.7554,67.5249
1220.7196,67.7117
1221.6838,67.9078
1222.6481,68.1095
1223.6123,68.3128
1224.5765,68.513
1225.5408,68.7055
1226.5050,68.8881
1227.4692,69.0614
1228.4335,69.228
1229.3977,69.39
1230.3619,69.5503
1231.3262,69.7144
1232.2904,69.8925
1233.2546,70.0956
1234.2189,70.3247
1235.1831,70.5598
1236.1473,70.7601
1237.1116,70.8817
1238.0758,70.9063
1239.0400,70.863
1240.0043,70.8239
1240.9685,70.8715
1241.9327,71.053
1242.8970,71.3514
1243.8612,71.6908
1244.8254,71.9773
1245.7897,72.1477
1246.7539,72.1978
1247.7181,72.1751
1248.6824,72.1447
1249.6466,72.1529
1250.6108,72.209
1251.5751,72.2908
1252.5393,72.3647
1253.5035,72.4043
1254.4678,72.3991
1255.4320,72.3529
1256.3962,72.2772
1257.3605,72.1857
1258.3247,72.0923
1259.2889,72.0095
1260.2532,71.9467
1261.2174,71.9091
1262.1816,71.8977
1263.1459,71.9111
1264.1101,71.9483
1265.0743,72.009
1266.0386,72.0933
1267.0028,72.2006
1267.9670,72.3298
1268.9313,72.4808
1269.8955,72.6552
1270.8597,72.8565
1271.8240,73.088
1272.7882,73.3515
1273.7524,73.6457
1274.7167,73.967
1275.6809,74.3104
1276.6451,74.6705
1277.6094,75.0421
1278.5736,75.4208
1279.5378,75.8028
1280.5021,76.1849
1281.4663,76.5637
1282.4305,76.9356
1283.3948,77.2969
1284.3590,77.6443
1285.3232,77.9764
1286.2875,78.2938
1287.2517,78.5988
1288.2159,78.8941
1289.1802,79.181
1290.1444,79.4583
1291.1086,79.7236
1292.0729,79.9753
1293.0371,80.2141
1294.0013,80.444
1294.9656,80.67
1295.9298,80.8951
1296.8940,81.1183
1297.8583,81.3339
1298.8225,81.5336
1299.7867,81.7095
1300.7510,81.8572
1301.7152,81.976
1302.6794,82.0685
1303.6437,82.1383
1304.6079,82.1881
1305.5721,82.2187
1306.5364,82.229
1307.5006,82.2171
1308.4648,82.1825
1309.4291,82.1267
1310.3933,82.0544
1311.3575,81.9723
1312.3218,81.8873
1313.2860,81.8043
1314.2502,81.7246
1315.2145,81.6469
1316.1787,81.569
1317.1429,81.4907
1318.1072,81.414
1319.0714,81.3411
1320.0356,81.2726
1320.9999,81.2066
1321.9641,81.14
1322.9283,81.0719
1323.8926,81.0045
1324.8568,80.9438
1325.8210,80.897
1326.7853,80.8716
1327.7495,80.8733
1328.7137,80.9071
1329.6780,80.9768
1330.6422,81.0837
1331.6064,81.2231
1332.5707,81.3836
1333.5349,81.5487
1334.4991,81.7048
1335.4634,81.8479
1336.4276,81.9883
1337.3918,82.1484
1338.3561,82.3495
1339.3203,82.5931
1340.2845,82.8516
1341.2488,83.0844
1342.2130,83.263
1343.1772,83.381
1344.1415,83.4468
1345.1057,83.474
1346.0699,83.475
1347.0342,83.4587
1347.9984,83.4299
1348.9626,83.3893
1349.9269,83.3347
1350.8911,83.2633
1351.8553,83.1746
1352.8196,83.0718
1353.7838,82.961
1354.7480,82.8482
1355.7123,82.7358
1356.6765,82.6214
1357.6407,82.5005
1358.6050,82.371
1359.5692,82.2368
1360.5334,82.1106
1361.4977,82.01
1362.4619,81.9454
1363.4261,81.9079
1364.3904,81.8742
1365.3546,81.8243
1366.3188,81.7508
1367.2831,81.6553
1368.2473,81.5426
1369.2115,81.4156
1370.1758,81.2744
1371.1400,81.1183
1372.1042,80.9509
1373.0685,80.7841
1374.0327,80.6366
1374.9969,80.5224
1375.9612,80.4407
1376.9254,80.3814
1377.8896,80.339
1378.8539,80.3187
1379.8181,80.33
1380.7823,80.3761
1381.7466,80.4503
1382.7108,80.5454
1383.6750,80.6678
1384.6393,80.8414
1385.6035,81.0878
1386.5677,81.3824
1387.5320,81.6244
1388.4962,81.6812
1389.4604,81.4793
1390.4247,81.0428
1391.3889,80.4698
1392.3531,79.9044
1393.3174,79.5166
1394.2816,79.4479
1395.2458,79.717
1396.2101,80.167
1397.1743,80.5497
1398.1385,80.6865
1399.1028,80.5501
1400.0670,80.2219
1401.0313,79.805
1401.9955,79.3696
1402.9597,78.9483
1403.9240,78.5579
1404.8882,78.2175
1405.8524,77.947
1406.8167,77.7531
1407.7809,77.6247
1408.7451,77.5449
1409.7094,77.5014
1410.6736,77.487
1411.6378,77.4911
1412.6021,77.4961
1413.5663,77.4844
1414.5305,77.4463
1415.4948,77.383
1416.4590,77.3031
1417.4232,77.2203
1418.3875,77.1441
1419.3517,77.0651
1420.3159,76.961
1421.2802,76.823
1422.2444,76.6651
1423.2086,76.5096
1424.1729,76.3733
1425.1371,76.265
1426.1013,76.1906
1427.0656,76.161
1428.0298,76.1934
1428.9940,76.2997
1429.9583,76.4691
1430.9225,76.6657
1431.8867,76.8514
1432.8510,77.0111
1433.8152,77.1548
1434.7794,77.2994
1435.7437,77.4451
1436.7079,77.5549
1437.6721,77.569
1438.6364,77.455
1439.6006,77.2295
1440.5648,76.9291
1441.5291,76.5824
1442.4933,76.2028
1443.4575,75.7918
1444.4218,75.3432
1445.3860,74.8493
1446.3502,74.3096
1447.3145,73.7434
1448.2787,73.1909
1449.2429,72.6956
1450.2072,72.2806
1451.1714,71.9449
1452.1356,71.6762
1453.0999,71.4627
1454.0641,71.2979
1455.0283,71.1929
1455.9926,71.1966
1456.9568,71.3588
1457.9210,71.5923
1458.8853,71.7288
1459.8495,71.7331
1460.8137,71.6864
1461.7780,71.6924
1462.7422,71.8583
1463.7064,72.2868
1464.6707,73.0104
1465.6349,73.9139
1466.5991,74.8032
1467.5634,75.5707
1468.5276,76.2402
1469.4918,76.9038
1470.4561,77.6705
1471.4203,78.6349
1472.3845,79.8075
1473.3488,81.0215
1474.3130,82.0195
1475.2772,82.6867
1476.2415,83.0788
1477.2057,83.2922
1478.1699,83.3978
1479.1342,83.4445
1480.0984,83.4752
1481.0626,83.5267
1482.0269,83.6183
1482.9911,83.7437
1483.9553,83.8781
1484.9196,83.9941
1485.8838,84.0727
1486.8480,84.1094
1487.8123,84.121
1488.7765,84.1395
1489.7407,84.1721
1490.7050,84.1795
1491.6692,84.1246
1492.6334,84.0063
1493.5977,83.8409
1494.5619,83.6403
1495.5261,83.4101
1496.4904,83.1633
1497.4546,82.9198
1498.4188,82.6822
1499.3831,82.4312
1500.3473,82.159
1501.3115,81.882
1502.2758,81.6194
1503.2400,81.3661
1504.2042,81.0711
1505.1685,80.6308
1506.1327,79.9639
1507.0969,79.1991
1508.0612,78.5915
1509.0254,78.1437
1509.9896,77.7242
1510.9539,77.2831
1511.9181,76.845
1512.8823,76.4797
1513.8466,76.2938
1514.8108,76.4028
1515.7750,76.8685
1516.7393,77.6562
1517.7035,78.6883
1518.6677,79.9565
1519.6320,81.5507
1520.5962,83.5193
1521.5604,85.6866
1522.5247,87.7099
1523.4889,89.3704
1524.4531,90.7154
1525.4174,91.9173
1526.3816,93.074
1527.3458,94.1454
1528.3101,95.0395
1529.2743,95.7211
1530.2385,96.2418
1531.2028,96.7048
1532.1670,97.2024
1533.1312,97.7447
1534.0955,98.2432
1535.0597,98.6039
1536.0239,98.8142
1536.9882,98.9157
1537.9524,98.9375
1538.9166,98.8826
1539.8809,98.8051
1540.8451,98.8634
1541.8093,99.1077
1542.7736,99.3893
1543.7378,99.6049
1544.7020,99.7436
1545.6663,99.8129
1546.6305,99.819
1547.5947,99.7749
1548.5590,99.7001
1549.5232,99.6105
1550.4874,99.5094
1551.4517,99.3893
1552.4159,99.2459
1553.3801,99.0895
1554.3444,98.9725
1555.3086,98.8694
1556.2728,98.7596
1557.2371,98.6265
1558.2013,98.5336
1559.1655,98.5358
1560.1298,98.4897
1561.0940,98.291
1562.0582,97.9972
1563.0225,97.6907
1563.9867,97.4137
1564.9509,97.1719
1565.9152,96.9465
1566.8794,96.7046
1567.8436,96.4145
1568.8079,96.0693
1569.7721,95.6961
1570.7363,95.3332
1571.7006,95.0005
1572.6648,94.6874
1573.6290,94.3511
1574.5933,93.9308
1575.5575,93.4008
1576.5217,92.8243
1577.4860,92.2979
1578.4502,91.8431
1579.4144,91.4185
1580.3787,90.9818
1581.3429,90.5092
1582.3071,89.9955
1583.2714,89.453
1584.2356,88.9026
1585.1998,88.358
1586.1641,87.8202
1587.1283,87.2866
1588.0925,86.7602
1589.0568,86.2509
1590.0210,85.7675
1590.9852,85.3121
1591.9495,84.8822
1592.9137,84.4776
1593.8779,84.1036
1594.8422,83.7668
1595.8064,83.4689
1596.7706,83.2042
1597.7349,82.9647
1598.6991,82.7458
1599.6633,82.5484
1600.6276,82.3775
1601.5918,82.239
1602.5560,82.1351
1603.5203,82.0614
1604.4845,82.0087
1605.4487,81.9694
1606.4130,81.946
1607.3772,81.9544
1608.3414,82.0157
1609.3057,82.1375
1610.2699,82.3021
1611.2341,82.4821
1612.1984,82.6694
1613.1626,82.8923
1614.1268,83.219
1615.0911,83.7405
1616.0553,84.4895
1617.0195,85.3326
1617.9838,86.0484
1618.9480,86.5493
1619.9122,86.9138
1620.8765,87.2689
1621.8407,87.7029
1622.8049,88.2289
1623.7692,88.7833
1624.7334,89.2805
1625.6976,89.6886
1626.6619,90.039
1627.6261,90.3701
1628.5903,90.683
1629.5546,90.9502
1630.5188,91.1545
1631.4830,91.3062
1632.4473,91.4275
1633.4115,91.5339
1634.3757,91.6426
1635.3400,91.7906
1636.3042,91.9888
1637.2684,92.1675
1638.2327,92.2647
1639.1969,92.2925
1640.1611,92.2916
1641.1254,92.2903
1642.0896,92.2969
1643.0538,92.3014
1644.0181,92.2779
1644.9823,92.2019
1645.9465,92.0892
1646.9108,91.9983
1647.8750,91.9643
1648.8392,91.9818
1649.8035,92.0403
1650.7677,92.1184
1651.7319,92.1714
1652.6962,92.1795
1653.6604,92.1677
1654.6246,92.0901
1655.5889,91.8994
1656.5531,91.6551
1657.5173,91.4348
1658.4816,91.2703
1659.4458,91.1506
1660.4100,91.0452
1661.3743,90.9318
1662.3385,90.808
1663.3027,90.6795
1664.2670,90.548
1665.2312,90.4138
1666.1954,90.273
1667.1597,90.1133
1668.1239,89.9265
1669.0881,89.7321
1670.0524,89.5723
1671.0166,89.4671
1671.9808,89.4008
1672.9451,89.3509
1673.9093,89.2977
1674.8735,89.2164
1675.8378,89.0787
1676.8020,88.8726
1677.7662,88.6193
1678.7305,88.364
1679.6947,88.146
1680.6589,87.9735
1681.6232,87.8184
1682.5874,87.6409
1683.5516,87.4369
1684.5159,87.2276
1685.4801,86.9935
1686.4443,86.708
1687.4086,86.3845
1688.3728,86.0546
1689.3370,85.7452
1690.3013,85.4713
1691.2655,85.2325
1692.2297,85.01
1693.1940,84.7678
1694.1582,84.4663
1695.1224,84.0904
1696.0867,83.6788
1697.0509,83.3212
1698.0151,83.0945
1698.9794,82.9826
1699.9436,82.8822
1700.9078,82.7054
1701.8721,82.4511
1702.8363,82.181
1703.8005,81.9637
1704.7648,81.8415
1705.7290,81.8195
1706.6932,81.8681
1707.6575,81.9413
1708.6217,82.0068
1709.5859,82.0595
1710.5502,82.112
1711.5144,82.1758
1712.4786,82.2543
1713.4429,82.3507
1714.4071,82.4898
1715.3713,82.7428
1716.3356,83.1957
1717.2998,83.8064
1718.2640,84.3665
1719.2283,84.7291
1720.1925,84.9282
1721.1567,85.0724
1722.1210,85.2459
1723.0852,85.4799
1724.0494,85.7612
1725.0137,86.0542
1725.9779,86.327
1726.9421,86.5669
1727.9064,86.7809
1728.8706,86.9862
1729.8348,87.2038
1730.7991,87.4609
1731.7633,87.7955
1732.7275,88.2378
1733.6918,88.7442
1734.6560,89.1816
1735.6202,89.4581
1736.5845,89.6112
1737.5487,89.7416
1738.5129,89.9279
1739.4772,90.1953
1740.4414,90.5171
1741.4056,90.8395
1742.3699,91.1204
1743.3341,91.3544
1744.2983,91.5632
1745.2626,91.7709
1746.2268,91.9943
1747.1910,92.251
1748.1553,92.568
1749.1195,92.9616
1750.0837,93.3942
1751.0480,93.7783
1752.0122,94.0507
1752.9764,94.2193
1753.9407,94.3359
1754.9049,94.4509
1755.8691,94.5893
1756.8334,94.7495
1757.7976,94.9165
1758.7618,95.0808
1759.7261,95.247
1760.6903,95.4255
1761.6545,95.6155
1762.6188,95.799
1763.5830,95.9546
1764.5472,96.0771
1765.5115,96.1778
1766.4757,96.2714
1767.4399,96.364
1768.4042,96.4533
1769.3684,96.5396
1770.3326,96.641
1771.2969,96.7915
1772.2611,97.0054
1773.2253,97.2432
1774.1896,97.4439
1775.1538,97.5864
1776.1180,97.6952
1777.0823,97.8063
1778.0465,97.9409
1779.0107,98.0988
1779.9750,98.2659
1780.9392,98.4267
1781.9034,98.5735
1782.8677,98.7066
1783.8319,98.8253
1784.7961,98.9233
1785.7604,98.9937
1786.7246,99.0384
1787.6888,99.0698
1788.6531,99.1017
1789.6173,99.1394
1790.5815,99.1814
1791.5458,99.2285
1792.5100,99.2788
1793.4742,99.3172
1794.4385,99.3299
1795.4027,99.3254
1796.3669,99.3259
1797.3312,99.3462
1798.2954,99.3875
1799.2596,99.4422
1800.2239,99.5021
1801.1881,99.5595
1802.1523,99.6076
1803.1166,99.6421
1804.0808,99.6631
1805.0450,99.6734
1806.0093,99.6759
1806.9735,99.6723
1807.9377,99.6776
1808.9020,99.6948
1809.8662,99.7235
1810.8304,99.7676
1811.7947,99.8223
1812.7589,99.8776
1813.7231,99.9268
1814.6874,99.9683
1815.6516,100.003
1816.6158,100.031
1817.5801,100.051
1818.5443,100.065
1819.5085,100.074
1820.4728,100.085
1821.4370,100.101
1822.4012,100.123
1823.3655,100.147
1824.3297,100.164
1825.2939,100.17
1826.2582,100.163
1827.2224,100.152
1828.1866,100.15
1829.1509,100.171
1830.1151,100.211
1831.0793,100.252
1832.0436,100.274
1833.0078,100.274
1833.9720,100.264
1834.9363,100.258
1835.9005,100.26
1836.8647,100.268
1837.8290,100.276
1838.7932,100.286
1839.7574,100.302
1840.7217,100.33
1841.6859,100.364
1842.6501,100.394
1843.6144,100.411
1844.5786,100.417
1845.5428,100.412
1846.5071,100.397
1847.4713,100.382
1848.4355,100.378
1849.3998,100.389
1850.3640,100.41
1851.3282,100.429
1852.2925,100.44
1853.2567,100.441
1854.2209,100.436
1855.1852,100.43
1856.1494,100.425
1857.1136,100.422
1858.0779,100.422
1859.0421,100.426
1860.0063,100.431
1860.9706,100.433
1861.9348,100.426
1862.8990,100.406
1863.8633,100.375
1864.8275,100.34
1865.7917,100.307
1866.7560,100.289
1867.7202,100.304
1868.6844,100.357
1869.6487,100.428
1870.6129,100.482
1871.5771,100.503
1872.5414,100.5
1873.5056,100.489
1874.4698,100.481
1875.4341,100.478
1876.3983,100.477
1877.3625,100.476
1878.3268,100.475
1879.2910,100.474
1880.2552,100.472
1881.2195,100.47
1882.1837,100.463
1883.1479,100.453
1884.1122,100.44
1885.0764,100.429
1886.0406,100.421
1887.0049,100.42
1887.9691,100.423
1888.9333,100.428
1889.8976,100.427
1890.8618,100.416
1891.8260,100.395
1892.7903,100.37
1893.7545,100.35
1894.7188,100.341
1895.6830,100.343
1896.6472,100.353
1897.6115,100.361
1898.5757,100.362
1899.5399,100.355
1900.5042,100.343
1901.4684,100.33
1902.4326,100.318
1903.3969,100.305
1904.3611,100.289
1905.3253,100.267
1906.2896,100.241
1907.2538,100.215
1908.2180,100.197
1909.1823,100.189
1910.1465,100.191
1911.1107,100.194
1912.0750,100.194
1913.0392,100.19
1914.0034,100.187
1914.9677,100.188
1915.9319,100.194
1916.8961,100.197
1917.8604,100.19
1918.8246,100.168
1919.7888,100.133
1920.7531,100.094
1921.7173,100.065
1922.6815,100.054
1923.6458,100.059
1924.6100,100.072
1925.5742,100.083
1926.5385,100.086
1927.5027,100.082
1928.4669,100.074
1929.4312,100.064
1930.3954,100.053
1931.3596,100.042
1932.3239,100.036
1933.2881,100.035
1934.2523,100.042
1935.2166,100.053
1936.1808,100.064
1937.1450,100.07
1938.1093,100.07
1939.0735,100.064
1940.0377,100.054
1941.0020,100.043
1941.9662,100.034
1942.9304,100.032
1943.8947,100.035
1944.8589,100.043
1945.8231,100.054
1946.7874,100.072
1947.7516,100.094
1948.7158,100.118
1949.6801,100.139
1950.6443,100.155
1951.6085,100.166
1952.5728,100.174
1953.5370,100.184
1954.5012,100.196
1955.4655,100.21
1956.4297,100.225
1957.3939,100.238
1958.3582,100.249
1959.3224,100.258
1960.2866,100.264
1961.2509,100.268
1962.2151,100.269
1963.1793,100.268
1964.1436,100.268
1965.1078,100.273
1966.0720,100.284
1967.0363,100.301
1968.0005,100.322
1968.9647,100.343
1969.9290,100.358
1970.8932,100.368
1971.8574,100.375
1972.8217,100.379
1973.7859,100.382
1974.7501,100.385
1975.7144,100.387
1976.6786,100.39
1977.6428,100.394
1978.6071,100.4
1979.5713,100.406
1980.5355,100.412
1981.4998,100.417
1982.4640,100.419
1983.4282,100.418
1984.3925,100.414
1985.3567,100.408
1986.3209,100.4
1987.2852,100.391
1988.2494,100.385
1989.2136,100.382
1990.1779,100.385
1991.1421,100.394
1992.1063,100.408
1993.0706,100.422
1994.0348,100.432
1994.9990,100.437
1995.9633,100.436
1996.9275,100.434
1997.8917,100.433
1998.8560,100.434
1999.8202,100.436
2000.7844,100.44
2001.7487,100.443
2002.7129,100.443
2003.6771,100.441
2004.6414,100.435
2005.6056,100.427
2006.5698,100.419
2007.5341,100.412
2008.4983,100.408
2009.4625,100.407
2010.4268,100.408
2011.3910,100.407
2012.3552,100.403
2013.3195,100.395
2014.2837,100.383
2015.2479,100.37
2016.2122,100.361
2017.1764,100.357
2018.1406,100.36
2019.1049,100.365
2020.0691,100.37
2021.0333,100.372
2021.9976,100.371
2022.9618,100.368
2023.9260,100.366
2024.8903,100.364
2025.8545,100.363
2026.8187,100.36
2027.7830,100.355
2028.7472,100.348
2029.7114,100.339
2030.6757,100.331
2031.6399,100.324
2032.6041,100.319
2033.5684,100.316
2034.5326,100.314
2035.4968,100.311
2036.4611,100.307
2037.4253,100.301
2038.3895,100.294
2039.3538,100.285
2040.3180,100.276
2041.2822,100.269
2042.2465,100.264
2043.2107,100.261
2044.1749,100.259
2045.1392,100.255
2046.1034,100.249
2047.0676,100.24
2048.0320,100.231
2048.9961,100.222
2049.9604,100.215
2050.9246,100.211
2051.8889,100.208
2052.8530,100.206
2053.8174,100.203
2054.7815,100.197
2055.7458,100.191
2056.7100,100.186
2057.6743,100.181
2058.6384,100.175
2059.6028,100.168
2060.5669,100.157
2061.5313,100.145
2062.4954,100.133
2063.4597,100.126
2064.4238,100.126
2065.3882,100.134
2066.3523,100.147
2067.3167,100.16
2068.2808,100.17
2069.2451,100.176
2070.2092,100.178
2071.1736,100.178
2072.1377,100.177
2073.1021,100.177
2074.0662,100.178
2075.0305,100.178
2075.9946,100.177
2076.9590,100.175
2077.9231,100.171
2078.8875,100.167
2079.8516,100.164
2080.8159,100.162
2081.7800,100.163
2082.7444,100.164
2083.7085,100.166
2084.6729,100.168
2085.6370,100.169
2086.6013,100.169
2087.5654,100.168
2088.5298,100.167
2089.4939,100.164
2090.4583,100.161
2091.4224,100.156
2092.3867,100.152
2093.3508,100.148
2094.3152,100.145
2095.2793,100.143
2096.2437,100.143
2097.2078,100.142
2098.1721,100.14
2099.1362,100.136
2100.1006,100.129
2101.0647,100.121
2102.0291,100.114
2102.9932,100.109
2103.9575,100.106
2104.9216,100.105
2105.8860,100.104
2106.8501,100.103
2107.8145,100.098
2108.7786,100.091
2109.7429,100.082
2110.7070,100.074
2111.6714,100.068
2112.6355,100.066
2113.5999,100.068
2114.5640,100.074
2115.5283,100.082
2116.4924,100.09
2117.4568,100.096
2118.4209,100.097
2119.3853,100.094
2120.3494,100.088
2121.3137,100.081
2122.2778,100.073
2123.2422,100.068
2124.2063,100.063
2125.1707,100.061
2126.1348,100.059
2127.0991,100.06
2128.0632,100.063
2129.0276,100.069
2129.9917,100.077
2130.9561,100.085
2131.9202,100.091
2132.8845,100.094
2133.8486,100.094
2134.8130,100.093
2135.7771,100.094
2136.7415,100.099
2137.7056,100.11
2138.6699,100.123
2139.6340,100.137
2140.5984,100.147
2141.5625,100.154
2142.5269,100.157
2143.4910,100.161
2144.4553,100.167
2145.4194,100.176
2146.3838,100.188
2147.3479,100.198
2148.3123,100.207
2149.2764,100.213
2150.2407,100.215
2151.2048,100.216
2152.1692,100.216
2153.1333,100.217
2154.0977,100.219
2155.0618,100.223
2156.0261,100.229
2156.9902,100.237
2157.9546,100.245
2158.9187,100.252
2159.8831,100.261
2160.8472,100.27
2161.8115,100.281
2162.7756,100.292
2163.7400,100.3
2164.7041,100.304
2165.6685,100.302
2166.6326,100.296
2167.5969,100.288
2168.5610,100.283
2169.5254,100.281
2170.4895,100.282
2171.4539,100.285
2172.4180,100.288
2173.3823,100.291
2174.3464,100.294
2175.3108,100.298
2176.2749,100.302
2177.2393,100.307
2178.2034,100.312
2179.1677,100.314
2180.1318,100.315
2181.0962,100.312
2182.0603,100.307
2183.0247,100.303
2183.9888,100.3
2184.9531,100.301
2185.9172,100.305
2186.8816,100.312
2187.8457,100.32
2188.8101,100.329
2189.7742,100.337
2190.7385,100.344
2191.7026,100.35
2192.6670,100.355
2193.6311,100.358
2194.5955,100.361
2195.5596,100.362
2196.5239,100.363
2197.4880,100.363
2198.4524,100.362
2199.4165,100.36
2200.3809,100.356
2201.3450,100.353
2202.3093,100.352
2203.2734,100.354
2204.2378,100.358
2205.2019,100.364
2206.1663,100.37
2207.1304,100.374
2208.0947,100.376
2209.0588,100.376
2210.0232,100.376
2210.9873,100.375
2211.9517,100.373
2212.9158,100.371
2213.8801,100.369
2214.8442,100.368
2215.8086,100.367
2216.7727,100.366
2217.7371,100.363
2218.7012,100.359
2219.6655,100.353
2220.6296,100.347
2221.5940,100.342
2222.5581,100.339
2223.5225,100.338
2224.4866,100.339
2225.4509,100.338
2226.4150,100.335
2227.3794,100.328
2228.3435,100.319
2229.3079,100.307
2230.2720,100.295
2231.2363,100.283
2232.2004,100.272
2233.1648,100.264
2234.1289,100.257
2235.0933,100.252
2236.0574,100.248
2237.0217,100.243
2237.9858,100.238
2238.9502,100.231
2239.9143,100.223
2240.8787,100.214
2241.8428,100.205
2242.8071,100.195
2243.7712,100.184
2244.7356,100.173
2245.6997,100.163
2246.6641,100.154
2247.6282,100.146
2248.5925,100.14
2249.5566,100.133
2250.5210,100.124
2251.4851,100.111
2252.4495,100.096
2253.4136,100.078
2254.3779,100.061
2255.3420,100.045
2256.3064,100.031
2257.2705,100.019
2258.2349,100.008
2259.1990,99.9964
2260.1633,99.9849
2261.1274,99.9733
2262.0918,99.9621
2263.0559,99.9524
2264.0203,99.9452
2264.9844,99.9408
2265.9487,99.9384
2266.9128,99.9358
2267.8772,99.9304
2268.8413,99.9205
2269.8057,99.9064
2270.7698,99.8907
2271.7341,99.8772
2272.6982,99.8688
2273.6626,99.8667
2274.6267,99.8698
2275.5911,99.8758
2276.5552,99.8825
2277.5195,99.8884
2278.4836,99.8932
2279.4480,99.8967
2280.4121,99.8987
2281.3765,99.8981
2282.3406,99.8939
2283.3049,99.885
2284.2690,99.8711
2285.2334,99.853
2286.1975,99.8319
2287.1619,99.8094
2288.1260,99.7867
2289.0903,99.7639
2290.0544,99.7411
2291.0188,99.7182
2291.9829,99.6966
2292.9473,99.678
2293.9114,99.6642
2294.8757,99.6558
2295.8398,99.6521
2296.8042,99.6517
2297.7683,99.6539
2298.7327,99.6597
2299.6968,99.6713
2300.6611,99.6904
2301.6252,99.7166
2302.5896,99.7467
2303.5537,99.7749
2304.5181,99.7958
2305.4822,99.8063
2306.4465,99.8081
2307.4106,99.8079
2308.3750,99.8151
2309.3391,99.8379
2310.3035,99.8795
2311.2676,99.9357
2312.2319,99.9965
2313.1960,100.051
2314.1604,100.091
2315.1245,100.117
2316.0889,100.137
2317.0530,100.159
2318.0173,100.191
2318.9814,100.23
2319.9458,100.263
2320.9099,100.269
2321.8743,100.225
2322.8384,100.122
2323.8027,99.9745
2324.7668,99.8159
2325.7312,99.6879
2326.6953,99.6222
2327.6597,99.6276
2328.6238,99.6851
2329.5881,99.7546
2330.5522,99.7915
2331.5166,99.7675
2332.4807,99.6836
2333.4451,99.5668
2334.4092,99.4538
2335.3735,99.3718
2336.3376,99.3267
2337.3020,99.302
2338.2661,99.27
2339.2305,99.2094
2340.1946,99.1252
2341.1589,99.0593
2342.1230,99.0797
2343.0874,99.2279
2344.0515,99.4453
2345.0159,99.5884
2345.9800,99.5635
2346.9443,99.4061
2347.9084,99.2256
2348.8728,99.1167
2349.8369,99.1129
2350.8013,99.1806
2351.7654,99.2428
2352.7297,99.2282
2353.6938,99.1235
2354.6582,98.9764
2355.6223,98.836
2356.5867,98.7074
2357.5508,98.5755
2358.5151,98.4422
2359.4792,98.3277
2360.4436,98.2467
2361.4077,98.2037
2362.3721,98.2097
2363.3362,98.2882
2364.3005,98.4554
2365.2646,98.6984
2366.2290,98.9763
2367.1931,99.2434
2368.1575,99.4707
2369.1216,99.6515
2370.0859,99.7931
2371.0500,99.9057
2372.0144,99.9946
2372.9785,100.057
2373.9429,100.086
2374.9070,100.072
2375.8713,100.013
2376.8354,99.9132
2377.7998,99.7858
2378.7639,99.6463
2379.7283,99.5206
2380.6924,99.4223
2381.6567,99.3467
2382.6208,99.296
2383.5852,99.2684
2384.5493,99.2592
2385.5137,99.2625
2386.4778,99.2723
2387.4421,99.2838
2388.4063,99.2938
2389.3706,99.3012
2390.3347,99.3066
2391.2991,99.3114
2392.2632,99.3169
2393.2275,99.3237
2394.1917,99.3315
2395.1560,99.3398
2396.1201,99.3482
2397.0845,99.3572
2398.0486,99.3671
2399.0129,99.378
2399.9771,99.3889
2400.9414,99.3981
2401.9055,99.4037
2402.8699,99.4049
2403.8340,99.4029
2404.7983,99.4001
2405.7625,99.3991
2406.7268,99.4015
2407.6909,99.4072
2408.6553,99.4148
2409.6194,99.4226
2410.5837,99.4298
2411.5479,99.4364
2412.5122,99.4432
2413.4763,99.4508
2414.4407,99.459
2415.4048,99.4673
2416.3691,99.4753
2417.3333,99.483
2418.2976,99.4907
2419.2617,99.4984
2420.2261,99.5055
2421.1902,99.5117
2422.1545,99.5169
2423.1187,99.5223
2424.0830,99.5296
2425.0471,99.54
2426.0115,99.5531
2426.9756,99.567
2427.9399,99.5797
2428.9041,99.5897
2429.8684,99.5973
2430.8325,99.6039
2431.7969,99.6103
2432.7610,99.6163
2433.7253,99.621
2434.6895,99.6236
2435.6538,99.6249
2436.6179,99.6268
2437.5823,99.6319
2438.5464,99.6417
2439.5107,99.6557
2440.4749,99.6719
2441.4392,99.6877
2442.4033,99.7008
2443.3677,99.7103
2444.3318,99.7166
2445.2961,99.7207
2446.2603,99.7236
2447.2246,99.7258
2448.1887,99.7275
2449.1531,99.7286
2450.1172,99.7297
2451.0815,99.7317
2452.0457,99.7357
2453.0100,99.7423
2453.9741,99.7511
2454.9385,99.7607
2455.9026,99.7696
2456.8669,99.7767
2457.8311,99.7813
2458.7954,99.7835
2459.7595,99.7837
2460.7239,99.7826
2461.6880,99.7818
2462.6523,99.7828
2463.6165,99.787
2464.5808,99.7945
2465.5449,99.8036
2466.5093,99.8117
2467.4734,99.8162
2468.4377,99.8165
2469.4019,99.814
2470.3662,99.8119
2471.3303,99.8131
2472.2947,99.8192
2473.2588,99.8292
2474.2231,99.841
2475.1873,99.8516
2476.1516,99.8591
2477.1157,99.8632
2478.0801,99.8648
2479.0442,99.8655
2480.0085,99.8666
2480.9727,99.8686
2481.9370,99.8708
2482.9011,99.8724
2483.8655,99.8726
2484.8296,99.8718
2485.7939,99.871
2486.7581,99.8721
2487.7224,99.8762
2488.6865,99.8835
2489.6509,99.8933
2490.6150,99.904
2491.5793,99.9139
2492.5435,99.9221
2493.5078,99.9289
2494.4719,99.9355
2495.4363,99.9436
2496.4004,99.954
2497.3647,99.9662
2498.3289,99.9785
2499.2932,99.9886
2500.2573,99.9951
2501.2217,99.9987
2502.1858,100.002
2503.1501,100.006
2504.1143,100.014
2505.0786,100.024
2506.0427,100.035
2507.0071,100.045
2507.9712,100.052
2508.9355,100.058
2509.8997,100.063
2510.8640,100.067
2511.8281,100.07
2512.7925,100.073
2513.7566,100.077
2514.7209,100.084
2515.6851,100.095
2516.6494,100.11
2517.6135,100.127
2518.5779,100.141
2519.5420,100.15
2520.5063,100.154
2521.4705,100.155
2522.4348,100.156
2523.3989,100.16
2524.3633,100.167
2525.3274,100.175
2526.2917,100.183
2527.2559,100.189
2528.2202,100.195
2529.1843,100.201
2530.1487,100.206
2531.1128,100.211
2532.0771,100.214
2533.0413,100.216
2534.0056,100.219
2534.9697,100.224
2535.9341,100.231
2536.8982,100.242
2537.8625,100.252
2538.8267,100.262
2539.7910,100.27
2540.7551,100.276
2541.7195,100.283
2542.6836,100.292
2543.6479,100.302
2544.6121,100.313
2545.5764,100.324
2546.5405,100.334
2547.5049,100.343
2548.4690,100.351
2549.4333,100.36
2550.3975,100.368
2551.3618,100.377
2552.3259,100.387
2553.2903,100.399
2554.2544,100.412
2555.2188,100.425
2556.1829,100.438
2557.1472,100.45
2558.1113,100.46
2559.0757,100.47
2560.0398,100.478
2561.0042,100.485
2561.9683,100.489
2562.9326,100.491
2563.8967,100.491
2564.8611,100.492
2565.8252,100.497
2566.7896,100.507
2567.7537,100.521
2568.7180,100.536
2569.6821,100.549
2570.6465,100.558
2571.6106,100.562
2572.5750,100.564
2573.5391,100.563
2574.5034,100.562
2575.4675,100.56
2576.4319,100.558
2577.3960,100.558
2578.3604,100.561
2579.3245,100.568
2580.2888,100.578
2581.2529,100.588
2582.2173,100.597
2583.1814,100.602
2584.1458,100.604
2585.1099,100.605
2586.0742,100.605
2587.0383,100.605
2588.0027,100.606
2588.9668,100.607
2589.9312,100.608
2590.8953,100.608
2591.8596,100.609
2592.8237,100.61
2593.7881,100.611
2594.7522,100.611
2595.7166,100.61
2596.6807,100.61
2597.6450,100.61
2598.6091,100.614
2599.5735,100.621
2600.5376,100.631
2601.5020,100.64
2602.4661,100.647
2603.4304,100.651
2604.3945,100.652
2605.3589,100.653
2606.3230,100.655
2607.2874,100.659
2608.2515,100.666
2609.2158,100.673
2610.1799,100.678
2611.1443,100.682
2612.1084,100.683
2613.0728,100.683
2614.0369,100.684
2615.0012,100.685
2615.9653,100.688
2616.9297,100.691
2617.8938,100.694
2618.8582,100.695
2619.8223,100.697
2620.7866,100.699
2621.7507,100.703
2622.7151,100.709
2623.6792,100.716
2624.6436,100.722
2625.6077,100.726
2626.5720,100.729
2627.5361,100.731
2628.5005,100.731
2629.4646,100.731
2630.4290,100.73
2631.3931,100.729
2632.3574,100.729
2633.3215,100.731
2634.2859,100.736
2635.2500,100.741
2636.2144,100.744
2637.1785,100.745
2638.1428,100.745
2639.1069,100.746
2640.0713,100.75
2641.0354,100.758
2641.9998,100.766
2642.9639,100.772
2643.9282,100.776
2644.8923,100.776
2645.8567,100.776
2646.8208,100.778
2647.7852,100.782
2648.7493,100.787
2649.7136,100.791
2650.6777,100.794
2651.6421,100.795
2652.6062,100.798
2653.5706,100.804
2654.5347,100.816
2655.4990,100.832
2656.4631,100.851
2657.4275,100.87
2658.3916,100.885
2659.3560,100.895
2660.3201,100.902
2661.2844,100.906
2662.2485,100.912
2663.2129,100.923
2664.1770,100.939
2665.1414,100.961
2666.1055,100.985
2667.0698,101.006
2668.0339,101.021
2668.9983,101.029
2669.9624,101.032
2670.9268,101.034
2671.8909,101.04
2672.8552,101.05
2673.8193,101.066
2674.7837,101.086
2675.7478,101.105
2676.7122,101.12
2677.6763,101.129
2678.6406,101.132
2679.6047,101.128
2680.5691,101.121
2681.5332,101.114
2682.4976,101.111
2683.4617,101.112
2684.4260,101.116
2685.3901,101.121
2686.3545,101.128
2687.3186,101.134
2688.2830,101.141
2689.2471,101.148
2690.2114,101.156
2691.1755,101.163
2692.1399,101.169
2693.1040,101.173
2694.0684,101.177
2695.0325,101.18
2695.9968,101.183
2696.9609,101.184
2697.9253,101.185
2698.8894,101.187
2699.8538,101.188
2700.8179,101.188
2701.7822,101.187
2702.7463,101.184
2703.7107,101.178
2704.6748,101.171
2705.6392,101.163
2706.6033,101.153
2707.5676,101.142
2708.5317,101.13
2709.4961,101.118
2710.4602,101.108
2711.4246,101.098
2712.3887,101.089
2713.3530,101.077
2714.3171,101.061
2715.2815,101.042
2716.2456,101.022
2717.2100,101.004
2718.1741,100.99
2719.1384,100.982
2720.1025,100.979
2721.0669,100.979
2722.0310,100.98
2722.9954,100.978
2723.9595,100.972
2724.9238,100.961
2725.8879,100.945
2726.8523,100.927
2727.8164,100.91
2728.7808,100.894
2729.7449,100.881
2730.7092,100.87
2731.6733,100.86
2732.6377,100.85
2733.6018,100.839
2734.5662,100.827
2735.5303,100.81
2736.4946,100.79
2737.4587,100.766
2738.4231,100.741
2739.3872,100.718
2740.3516,100.701
2741.3157,100.691
2742.2800,100.687
2743.2441,100.689
2744.2085,100.696
2745.1726,100.704
2746.1370,100.712
2747.1011,100.716
2748.0654,100.715
2749.0295,100.708
2749.9939,100.697
2750.9580,100.686
2751.9224,100.677
2752.8865,100.672
2753.8508,100.671
2754.8149,100.668
2755.7793,100.661
2756.7434,100.646
2757.7078,100.625
2758.6719,100.601
2759.6362,100.578
2760.6003,100.56
2761.5647,100.547
2762.5288,100.537
2763.4932,100.528
2764.4573,100.518
2765.4216,100.504
2766.3857,100.488
2767.3501,100.472
2768.3142,100.459
2769.2786,100.45
2770.2427,100.442
2771.2070,100.432
2772.1711,100.415
2773.1355,100.387
2774.0996,100.35
2775.0640,100.311
2776.0281,100.273
2776.9924,100.241
2777.9565,100.212
2778.9209,100.181
2779.8850,100.143
2780.8494,100.097
2781.8135,100.046
2782.7778,99.9944
2783.7419,99.9484
2784.7063,99.9096
2785.6704,99.8763
2786.6348,99.8437
2787.5989,99.8068
2788.5632,99.7622
2789.5273,99.7093
2790.4917,99.6501
2791.4558,99.5882
2792.4202,99.5266
2793.3843,99.467
2794.3486,99.409
2795.3127,99.3503
2796.2771,99.2886
2797.2412,99.2228
2798.2056,99.1532
2799.1697,99.0811
2800.1340,99.0082
2801.0981,98.9355
2802.0625,98.8617
2803.0266,98.7814
2803.9910,98.7004
2804.9551,98.6188
2805.9194,98.5359
2806.8835,98.4506
2807.8479,98.3608
2808.8120,98.2639
2809.7764,98.158
2810.7405,98.0427
2811.7048,97.919
2812.6689,97.7887
2813.6333,97.6534
2814.5974,97.5134
2815.5618,97.3673
2816.5259,97.2124
2817.4902,97.0458
2818.4543,96.865
2819.4187,96.6688
2820.3828,96.4575
2821.3472,96.2325
2822.3113,95.9953
2823.2756,95.7472
2824.2397,95.4882
2825.2041,95.2175
2826.1682,94.9332
2827.1326,94.6333
2828.0967,94.3161
2829.0610,93.9811
2830.0251,93.6293
2830.9895,93.2631
2831.9536,92.8862
2832.9180,92.5024
2833.8821,92.1152
2834.8464,91.7276
2835.8105,91.3425
2836.7749,90.9633
2837.7390,90.5935
2838.7034,90.2369
2839.6675,89.8955
2840.6318,89.5679
2841.5959,89.2486
2842.5603,88.9287
2843.5244,88.5994
2844.4888,88.2567
2845.4529,87.905
2846.4172,87.5576
2847.3813,87.2328
2848.3457,86.9465
2849.3098,86.7048
2850.2742,86.5012
2851.2383,86.3193
2852.2026,86.1398
2853.1667,85.9481
2854.1311,85.7375
2855.0952,85.5086
2856.0596,85.2641
2857.0237,85.0051
2857.9880,84.7293
2858.9521,84.4328
2859.9165,84.1125
2860.8806,83.7683
2861.8450,83.4033
2862.8091,83.0239
2863.7734,82.6385
2864.7375,82.2574
2865.7019,81.8912
2866.6660,81.5483
2867.6304,81.2333
2868.5945,80.9465
2869.5588,80.6845
2870.5229,80.4424
2871.4873,80.2149
2872.4514,79.9968
2873.4158,79.7824
2874.3799,79.5653
2875.3442,79.3392
2876.3083,79.0986
2877.2727,78.8403
2878.2368,78.5645
2879.2012,78.2772
2880.1653,77.9907
2881.1296,77.7239
2882.0938,77.4982
2883.0581,77.3321
2884.0222,77.2345
2884.9866,77.2006
2885.9507,77.2118
2886.9150,77.2398
2887.8792,77.2553
2888.8435,77.2378
2889.8076,77.184
2890.7720,77.11
2891.7361,77.0419
2892.7004,76.9975
2893.6646,76.9672
2894.6289,76.9078
2895.5930,76.7602
2896.5574,76.4835
2897.5215,76.0886
2898.4858,75.6472
2899.4500,75.2671
2900.4143,75.0433
2901.3784,75.014
2902.3428,75.1454
2903.3069,75.353
2904.2712,75.5444
2905.2354,75.6569
2906.1997,75.6716
2907.1638,75.6039
2908.1282,75.4845
2909.0923,75.343
2910.0566,75.2021
2911.0208,75.0771
2911.9851,74.976
2912.9492,74.8978
2913.9136,74.8327
2914.8777,74.7666
2915.8420,74.6879
2916.8062,74.5936
2917.7705,74.4894
2918.7346,74.3848
2919.6990,74.2875
2920.6631,74.2009
2921.6274,74.125
2922.5916,74.058
2923.5559,73.9977
2924.5200,73.9417
2925.4844,73.8881
2926.4485,73.8369
2927.4128,73.7909
2928.3770,73.7543
2929.3413,73.7301
2930.3054,73.7185
2931.2698,73.7171
2932.2339,73.7246
2933.1982,73.744
2934.1624,73.7826
2935.1267,73.848
2936.0908,73.9435
2937.0552,74.0647
2938.0193,74.2017
2938.9836,74.3443
2939.9478,74.4884
2940.9121,74.6387
2941.8762,74.8062
2942.8406,75.0008
2943.8047,75.2237
2944.7690,75.4632
2945.7332,75.6962
2946.6975,75.8971
2947.6616,76.0474
2948.6260,76.1423
2949.5901,76.1915
2950.5544,76.212
2951.5186,76.2198
2952.4829,76.2234
2953.4470,76.2235
2954.4114,76.2173
2955.3755,76.2046
2956.3398,76.1903
2957.3040,76.1829
2958.2683,76.1892
2959.2324,76.2088
2960.1968,76.2326
2961.1609,76.2452
2962.1252,76.2318
2963.0894,76.184
2964.0537,76.1039
2965.0178,76.0019
2965.9822,75.8934
2966.9463,75.7942
2967.9106,75.7201
2968.8748,75.6866
2969.8391,75.7088
2970.8032,75.7992
2971.7676,75.9614
2972.7317,76.1873
2973.6960,76.4574
2974.6602,76.7473
2975.6245,77.0368
2976.5886,77.3155
2977.5530,77.5831
2978.5171,77.8444
2979.4814,78.1016
2980.4456,78.3475
2981.4099,78.5617
2982.3740,78.7145
2983.3384,78.7801
2984.3025,78.756
2985.2668,78.682
2986.2310,78.6432
2987.1953,78.7483
2988.1594,79.0854
2989.1238,79.6774
2990.0879,80.4626
2991.0522,81.316
2992.0164,82.1017
2992.9807,82.7297
2993.9448,83.1869
2994.9092,83.5263
2995.8733,83.8282
2996.8376,84.1571
2997.8018,84.5393
2998.7661,84.9681
2999.7302,85.4239
3000.6946,85.8925
3001.6587,86.3707
3002.6230,86.862
3003.5872,87.368
3004.5515,87.8852
3005.5156,88.4065
3006.4800,88.9253
3007.4441,89.4379
3008.4084,89.9439
3009.3726,90.4443
3010.3369,90.9408
3011.3010,91.4343
3012.2654,91.9238
3013.2295,92.406
3014.1938,92.8753
3015.1580,93.3257
3016.1223,93.7532
3017.0864,94.1575
3018.0508,94.5415
3019.0149,94.91
3019.9792,95.2671
3020.9434,95.6149
3021.9077,95.9536
3022.8718,96.2817
3023.8362,96.5967
3024.8003,96.8963
3025.7646,97.1787
3026.7288,97.4441
3027.6931,97.6951
3028.6572,97.9356
3029.6216,98.1693
3030.5857,98.3975
3031.5500,98.6184
3032.5142,98.8271
3033.4785,99.0191
3034.4426,99.1922
3035.4070,99.3487
3036.3711,99.4932
3037.3354,99.6305
3038.2996,99.762
3039.2639,99.8846
3040.2280,99.992
3041.1924,100.078
3042.1565,100.141
3043.1208,100.185
3044.0850,100.216
3045.0493,100.215
3046.0134,100.21
3046.9778,100.205
3047.9419,100.197
3048.9063,100.179
3049.8704,100.148
3050.8347,100.105
3051.7988,100.053
3052.7632,99.9993
3053.7273,99.9469
3054.6917,99.8973
3055.6558,99.8494
3056.6201,99.8019
3057.5842,99.7537
3058.5486,99.7039
3059.5127,99.6509
3060.4771,99.5914
3061.4412,99.5231
3062.4055,99.4461
3063.3696,99.3648
3064.3340,99.2862
3065.2981,99.2167
3066.2625,99.1582
3067.2266,99.107
3068.1909,99.0566
3069.1550,99.0015
3070.1194,98.9394
3071.0835,98.8713
3072.0479,98.7993
3073.0120,98.724
3073.9763,98.6449
3074.9404,98.5617
3075.9048,98.4756
3076.8689,98.3903
3077.8333,98.3101
3078.7974,98.2375
3079.7617,98.1721
3080.7258,98.1105
3081.6902,98.0481
3082.6543,97.981
3083.6187,97.907
3084.5828,97.8258
3085.5471,97.7397
3086.5112,97.652
3087.4756,97.5668
3088.4397,97.4868
3089.4041,97.4117
3090.3682,97.3386
3091.3325,97.2624
3092.2966,97.1787
3093.2610,97.0856
3094.2251,96.9842
3095.1895,96.8779
3096.1536,96.7703
3097.1179,96.6638
3098.0820,96.5591
3099.0464,96.456
3100.0105,96.3543
3100.9749,96.2545
3101.9390,96.1577
3102.9033,96.0646
3103.8674,95.9754
3104.8318,95.8891
3105.7959,95.8031
3106.7603,95.7144
3107.7244,95.6201
3108.6887,95.5189
3109.6528,95.4117
3110.6172,95.3011
3111.5813,95.1899
3112.5457,95.0799
3113.5098,94.9711
3114.4741,94.8627
3115.4382,94.7544
3116.4026,94.6476
3117.3667,94.5451
3118.3311,94.4494
3119.2952,94.3606
3120.2595,94.2756
3121.2236,94.1889
3122.1880,94.0959
3123.1521,93.9946
3124.1165,93.8872
3125.0806,93.778
3126.0449,93.671
3127.0090,93.567
3127.9734,93.4636
3128.9375,93.3572
3129.9019,93.2454
3130.8660,93.1292
3131.8303,93.0128
3132.7944,92.9009
3133.7588,92.7966
3134.7229,92.6996
3135.6873,92.6064
3136.6514,92.513
3137.6157,92.4163
3138.5798,92.3151
3139.5442,92.2097
3140.5083,92.101
3141.4727,91.9895
3142.4368,91.8757
3143.4011,91.7598
3144.3652,91.6429
3145.3296,91.5265
3146.2937,91.4125
3147.2581,91.3023
3148.2222,91.1958
3149.1865,91.0916
3150.1506,90.9867
3151.1150,90.8778
3152.0791,90.763
3153.0435,90.6428
3154.0076,90.5199
3154.9719,90.3979
3155.9360,90.2796
3156.9004,90.1653
3157.8645,90.0533
3158.8289,89.9414
3159.7930,89.8285
3160.7573,89.7152
3161.7214,89.6031
3162.6858,89.493
3163.6499,89.3842
3164.6143,89.2746
3165.5784,89.1629
3166.5427,89.0488
3167.5068,88.9336
3168.4712,88.8182
3169.4353,88.7165
3170.3997,88.5976
3171.3638,88.4735
3172.3281,88.3439
3173.2922,88.2109
3174.2566,88.0792
3175.2207,87.9536
3176.1851,87.837
3177.1492,87.7296
3178.1135,87.6285
3179.0776,87.5296
3180.0420,87.4288
3181.0061,87.3239
3181.9705,87.2147
3182.9346,87.1025
3183.8989,86.9895
3184.8630,86.8774
3185.8274,86.7666
3186.7915,86.6563
3187.7559,86.5452
3188.7200,86.4326
3189.6843,86.3188
3190.6484,86.2048
3191.6128,86.0916
3192.5769,85.979
3193.5413,85.8667
3194.5054,85.7542
3195.4697,85.6421
3196.4338,85.5322
3197.3982,85.426
3198.3623,85.3241
3199.3267,85.2251
3200.2908,85.127
3201.2551,85.0276
3202.2192,84.9259
3203.1836,84.8221
3204.1477,84.717
3205.1121,84.6119
3206.0762,84.5079
3207.0405,84.4057
3208.0046,84.3057
3208.9690,84.2073
3209.9331,84.1092
3210.8975,84.01
3211.8616,83.9094
3212.8259,83.8091
3213.7900,83.7121
3214.7544,83.621
3215.7185,83.5359
3216.6829,83.4537
3217.6470,83.3697
3218.6113,83.2799
3219.5754,83.1836
3220.5398,83.084
3221.5039,82.9863
3222.4683,82.8949
3223.4324,82.8113
3224.3967,82.7334
3225.3608,82.6569
3226.3252,82.5779
3227.2893,82.4941
3228.2537,82.4061
3229.2178,82.3161
3230.1821,82.2273
3231.1462,82.1427
3232.1106,82.0642
3233.0747,81.9925
3234.0391,81.9264
3235.0032,81.8628
3235.9675,81.7977
3236.9316,81.7269
3237.8960,81.6481
3238.8601,81.5618
3239.8245,81.4717
3240.7886,81.3829
3241.7529,81.3008
3242.7170,81.2286
3243.6814,81.167
3244.6455,81.1137
3245.6099,81.0645
3246.5740,81.0143
3247.5383,80.9583
3248.5024,80.893
3249.4668,80.8178
3250.4309,80.7348
3251.3953,80.6493
3252.3594,80.5676
3253.3237,80.4952
3254.2878,80.434
3255.2522,80.3823
3256.2163,80.336
3257.1807,80.2905
3258.1448,80.2432
3259.1091,80.1935
3260.0732,80.1419
3261.0376,80.0886
3262.0017,80.0324
3262.9661,79.9707
3263.9302,79.901
3264.8945,79.8224
3265.8586,79.7364
3266.8230,79.6475
3267.7871,79.5617
3268.7515,79.4845
3269.7156,79.4196
3270.6799,79.3679
3271.6440,79.3271
3272.6084,79.2934
3273.5725,79.2619
3274.5369,79.2288
3275.5010,79.1917
3276.4653,79.1508
3277.4294,79.1075
3278.3938,79.0643
3279.3579,79.0232
3280.3223,78.9846
3281.2864,78.9472
3282.2507,78.9088
3283.2148,78.8663
3284.1792,78.8178
3285.1433,78.7629
3286.1077,78.7029
3287.0718,78.6406
3288.0361,78.579
3289.0002,78.5205
3289.9646,78.4667
3290.9287,78.4179
3291.8931,78.374
3292.8572,78.3349
3293.8215,78.3007
3294.7856,78.2706
3295.7500,78.2424
3296.7141,78.2126
3297.6785,78.1776
3298.6426,78.1357
3299.6069,78.0876
3300.5710,78.0362
3301.5354,77.9847
3302.4995,77.9352
3303.4639,77.8894
3304.4280,77.849
3305.3923,77.8169
3306.3564,77.7965
3307.3208,77.7888
3308.2849,77.7912
3309.2493,77.7969
3310.2134,77.7979
3311.1777,77.7888
3312.1418,77.7685
3313.1062,77.7405
3314.0703,77.7097
3315.0347,77.6803
3315.9988,77.6541
3316.9631,77.6305
3317.9272,77.608
3318.8916,77.5844
3319.8557,77.5581
3320.8201,77.5286
3321.7842,77.4967
3322.7485,77.4645
3323.7126,77.4347
3324.6770,77.4092
3325.6411,77.3885
3326.6055,77.3718
3327.5696,77.3577
3328.5339,77.3447
3329.4980,77.3322
3330.4624,77.3189
3331.4265,77.3035
3332.3909,77.2848
3333.3550,77.2638
3334.3193,77.2434
3335.2834,77.228
3336.2478,77.2203
3337.2119,77.2193
3338.1763,77.2209
3339.1404,77.22
3340.1047,77.2144
3341.0688,77.2051
3342.0332,77.1957
3342.9973,77.189
3343.9617,77.1853
3344.9258,77.1828
3345.8901,77.1796
3346.8542,77.176
3347.8186,77.1747
3348.7827,77.1789
3349.7471,77.1897
3350.7112,77.2049
3351.6755,77.2194
3352.6396,77.2275
3353.6040,77.2259
3354.5681,77.215
3355.5325,77.199
3356.4966,77.1847
3357.4609,77.1778
3358.4250,77.1805
3359.3894,77.1901
3360.3535,77.2003
3361.3179,77.2049
3362.2820,77.2015
3363.2463,77.1932
3364.2104,77.188
3365.1748,77.1943
3366.1389,77.2168
3367.1033,77.2542
3368.0674,77.2997
3369.0317,77.345
3369.9958,77.3835
3370.9602,77.4119
3371.9243,77.4302
3372.8887,77.4404
3373.8528,77.4461
3374.8171,77.4518
3375.7813,77.4627
3376.7456,77.4829
3377.7097,77.5144
3378.6741,77.555
3379.6382,77.5995
3380.6025,77.6415
3381.5667,77.6767
3382.5310,77.7043
3383.4951,77.7267
3384.4595,77.7474
3385.4236,77.769
3386.3879,77.7919
3387.3521,77.8157
3388.3164,77.8403
3389.2805,77.8668
3390.2449,77.8972
3391.2090,77.9333
3392.1733,77.9758
3393.1375,78.0247
3394.1018,78.0794
3395.0659,78.1386
3396.0303,78.1998
3396.9944,78.2587
3397.9587,78.311
3398.9229,78.3541
3399.8872,78.3894
3400.8513,78.4214
3401.8157,78.4559
3402.7798,78.496
3403.7441,78.542
3404.7083,78.592
3405.6726,78.6447
3406.6367,78.7003
3407.6011,78.7601
3408.5652,78.8246
3409.5295,78.8921
3410.4937,78.959
3411.4580,79.0216
3412.4221,79.0774
3413.3865,79.1255
3414.3506,79.1667
3415.3149,79.2037
3416.2791,79.2406
3417.2434,79.284
3418.2075,79.3415
3419.1719,79.4181
3420.1360,79.5126
3421.1003,79.616
3422.0645,79.7151
3423.0288,79.7993
3423.9929,79.8656
3424.9573,79.9203
3425.9214,79.9746
3426.8857,80.0389
3427.8499,80.1166
3428.8142,80.2031
3429.7783,80.2888
3430.7427,80.3657
3431.7068,80.4325
3432.6711,80.4961
3433.6353,80.5661
3434.5996,80.6492
3435.5637,80.7447
3436.5281,80.8452
3437.4922,80.941
3438.4565,81.0252
3439.4207,81.0957
3440.3850,81.1551
3441.3491,81.2083
3442.3135,81.261
3443.2776,81.3193
3444.2419,81.3893
3445.2061,81.4761
3446.1704,81.5808
3447.1345,81.6985
3448.0989,81.819
3449.0630,81.9321
3450.0273,82.032
3450.9915,82.1187
3451.9558,82.1963
3452.9199,82.2698
3453.8843,82.3427
3454.8484,82.4169
3455.8127,82.4928
3456.7769,82.5712
3457.7412,82.6534
3458.7053,82.7413
3459.6697,82.8364
3460.6338,82.9378
3461.5981,83.0418
3462.5623,83.1437
3463.5266,83.2398
3464.4907,83.3301
3465.4551,83.4182
3466.4192,83.5092
3467.3835,83.6056
3468.3477,83.7051
3469.3120,83.8027
3470.2761,83.8944
3471.2405,83.9809
3472.2046,84.0679
3473.1689,84.1619
3474.1331,84.2651
3475.0974,84.3734
3476.0615,84.4788
3477.0259,84.5753
3477.9900,84.6635
3478.9543,84.7503
3479.9185,84.8445
3480.8828,84.9511
3481.8469,85.0677
3482.8113,85.1864
3483.7754,85.2998
3484.7397,85.4055
3485.7039,85.5069
3486.6682,85.6105
3487.6323,85.7216
3488.5967,85.8408
3489.5608,85.9641
3490.5251,86.0854
3491.4893,86.2011
3492.4536,86.3121
3493.4177,86.4228
3494.3821,86.538
3495.3462,86.657
3496.3105,86.7725
3497.2747,86.8746
3498.2390,86.9585
3499.2031,87.0301
3500.1675,87.1064
3501.1316,87.2077
3502.0959,87.3464
3503.0601,87.5159
3504.0244,87.6938
3504.9885,87.8569
3505.9529,87.9955
3506.9170,88.1149
3507.8813,88.2282
3508.8455,88.3468
3509.8098,88.4746
3510.7739,88.6083
3511.7383,88.7426
3512.7024,88.8751
3513.6667,89.0075
3514.6309,89.142
3515.5952,89.2774
3516.5593,89.4093
3517.5237,89.5325
3518.4878,89.645
3519.4521,89.7502
3520.4163,89.8547
3521.3806,89.9651
3522.3447,90.084
3523.3091,90.2089
3524.2732,90.3355
3525.2375,90.4619
3526.2017,90.5917
3527.1660,90.7316
3528.1301,90.8845
3529.0945,91.0454
3530.0586,91.2031
3531.0229,91.3483
3531.9871,91.4795
3532.9514,91.6037
3533.9155,91.7323
3534.8799,91.8744
3535.8440,92.0307
3536.8083,92.1917
3537.7725,92.3427
3538.7368,92.4722
3539.7009,92.5778
3540.6653,92.667
3541.6294,92.7536
3542.5938,92.8544
3543.5579,92.9842
3544.5222,93.1489
3545.4863,93.3384
3546.4507,93.5299
3547.4148,93.7034
3548.3792,93.855
3549.3433,93.996
3550.3076,94.1429
3551.2717,94.3057
3552.2361,94.4821
3553.2002,94.6575
3554.1646,94.8156
3555.1287,94.9488
3556.0930,95.0619
3557.0571,95.1656
3558.0215,95.2684
3558.9856,95.3713
3559.9500,95.4678
3560.9141,95.5499
3561.8784,95.6153
3562.8425,95.6712
3563.8069,95.7353
3564.7710,95.8368
3565.7354,96.0095
3566.6995,96.2588
3567.6638,96.5333
3568.6279,96.7617
3569.5923,96.9164
3570.5564,97.0172
3571.5208,97.0961
3572.4849,97.1741
3573.4492,97.2568
3574.4133,97.3426
3575.3777,97.4307
3576.3418,97.5239
3577.3062,97.6257
3578.2703,97.7345
3579.2346,97.8407
3580.1987,97.9316
3581.1631,97.9995
3582.1272,98.0478
3583.0916,98.088
3584.0557,98.1344
3585.0200,98.2006
3585.9841,98.2981
3586.9485,98.4244
3587.9126,98.5485
3588.8770,98.6304
3589.8411,98.6593
3590.8054,98.6572
3591.7695,98.654
3592.7339,98.6692
3593.6980,98.7072
3594.6624,98.7597
3595.6265,98.8123
3596.5908,98.8565
3597.5549,98.8981
3598.5193,98.9532
3599.4834,99.034
3600.4478,99.1367
3601.4119,99.242
3602.3762,99.3302
3603.3403,99.3948
3604.3047,99.4428
3605.2688,99.4873
3606.2332,99.5399
3607.1973,99.6061
3608.1616,99.6801
3609.1257,99.7455
3610.0901,99.7871
3611.0542,99.8009
3612.0186,99.7937
3612.9829,99.7759
3613.9470,99.7557
3614.9114,99.7385
3615.8755,99.7298
3616.8398,99.7375
3617.8040,99.7706
3618.7683,99.8284
3619.7324,99.8865
3620.6968,99.907
3621.6609,99.8732
3622.6252,99.8045
3623.5894,99.7369
3624.5537,99.6958
3625.5178,99.6849
3626.4822,99.6935
3627.4463,99.7191
3628.4106,99.7591
3629.3748,99.7932
3630.3391,99.7793
3631.3032,99.7106
3632.2676,99.6217
3633.2317,99.5467
3634.1960,99.4967
3635.1602,99.4619
3636.1245,99.4244
3637.0886,99.3703
3638.0530,99.2943
3639.0171,99.1974
3639.9814,99.0826
3640.9456,98.9537
3641.9099,98.8167
3642.8740,98.6795
3643.8384,98.5465
3644.8025,98.4094
3645.7668,98.243
3646.7310,98.0275
3647.6953,97.8096
3648.6594,97.7101
3649.6238,97.7494
3650.5879,97.7909
3651.5522,97.7438
3652.5164,97.6213
3653.4807,97.4618
3654.4448,97.2857
3655.4092,97.1012
3656.3733,96.9216
3657.3376,96.7647
3658.3018,96.6434
3659.2661,96.5633
3660.2302,96.524
3661.1946,96.518
3662.1587,96.5305
3663.1230,96.545
3664.0872,96.5522
3665.0515,96.55
3666.0156,96.5366
3666.9800,96.5063
3667.9441,96.4581
3668.9084,96.4077
3669.8726,96.3727
3670.8369,96.346
3671.8010,96.308
3672.7654,96.2552
3673.7295,96.2153
3674.6938,96.2492
3675.6580,96.4062
3676.6223,96.643
3677.5864,96.8514
3678.5508,96.9687
3679.5149,96.9972
3680.4792,96.9631
3681.4434,96.8921
3682.4077,96.8101
3683.3718,96.7433
3684.3362,96.7101
3685.3003,96.7103
3686.2646,96.7228
3687.2288,96.7243
3688.1931,96.7249
3689.1572,96.7708
3690.1216,96.8817
3691.0857,97.0241
3692.0500,97.1648
3693.0142,97.3
3693.9785,97.4389
3694.9426,97.5871
3695.9070,97.7442
3696.8711,97.908
3697.8354,98.0785
3698.7996,98.2589
3699.7639,98.4532
3700.7280,98.6597
3701.6924,98.8638
3702.6565,99.0396
3703.6208,99.167
3704.5850,99.246
3705.5493,99.2919
3706.5134,99.3193
3707.4778,99.336
3708.4419,99.3539
3709.4063,99.4113
3710.3704,99.563
3711.3347,99.806
3712.2988,100.045
3713.2632,100.189
3714.2273,100.225
3715.1917,100.192
3716.1558,100.132
3717.1201,100.07
3718.0842,100.012
3719.0486,99.9552
3720.0127,99.8982
3720.9771,99.8447
3721.9412,99.8038
3722.9055,99.7891
3723.8696,99.8251
3724.8340,99.8778
3725.7981,99.9288
3726.7625,99.9627
3727.7266,99.9776
3728.6909,99.9831
3729.6550,99.9879
3730.6194,99.9911
3731.5835,99.9843
3732.5479,99.968
3733.5120,99.9706
3734.4763,100.034
3735.4404,100.152
3736.4048,100.254
3737.3689,100.292
3738.3333,100.29
3739.2974,100.307
3740.2617,100.385
3741.2258,100.523
3742.1902,100.672
3743.1543,100.758
3744.1187,100.731
3745.0828,100.597
3746.0471,100.412
3747.0112,100.235
3747.9756,100.111
3748.9397,100.067
3749.9041,100.123
3750.8682,100.267
3751.8325,100.406
3752.7966,100.451
3753.7610,100.404
3754.7251,100.317
3755.6895,100.24
3756.6536,100.193
3757.6179,100.183
3758.5820,100.206
3759.5464,100.243
3760.5105,100.275
3761.4749,100.29
3762.4390,100.291
3763.4033,100.287
3764.3674,100.283
3765.3318,100.28
3766.2959,100.278
3767.2603,100.282
3768.2244,100.298
3769.1887,100.329
3770.1528,100.367
3771.1172,100.396
3772.0813,100.404
3773.0457,100.389
3774.0098,100.366
3774.9741,100.344
3775.9382,100.328
3776.9026,100.315
3777.8667,100.301
3778.8311,100.285
3779.7952,100.263
3780.7595,100.231
3781.7236,100.195
3782.6880,100.164
3783.6521,100.153
3784.6165,100.165
3785.5806,100.199
3786.5449,100.242
3787.5090,100.283
3788.4734,100.312
3789.4375,100.329
3790.4019,100.337
3791.3660,100.338
3792.3303,100.327
3793.2944,100.296
3794.2588,100.242
3795.2229,100.175
3796.1873,100.114
3797.1514,100.076
3798.1157,100.067
3799.0798,100.074
3800.0442,100.083
3801.0083,100.087
3801.9727,100.085
3802.9368,100.083
3803.9011,100.095
3804.8652,100.137
3805.8296,100.209
3806.7937,100.288
3807.7581,100.337
3808.7222,100.336
3809.6865,100.3
3810.6506,100.268
3811.6150,100.272
3812.5791,100.306
3813.5435,100.339
3814.5076,100.332
3815.4719,100.276
3816.4360,100.188
3817.4004,100.104
3818.3645,100.053
3819.3289,100.05
3820.2930,100.088
3821.2573,100.135
3822.2214,100.15
3823.1858,100.119
3824.1499,100.067
3825.1143,100.029
3826.0784,100.027
3827.0427,100.059
3828.0068,100.107
3828.9712,100.148
3829.9353,100.168
3830.8997,100.166
3831.8638,100.15
3832.8281,100.128
3833.7922,100.106
3834.7566,100.081
3835.7207,100.046
3836.6851,100.004
3837.6492,99.9674
3838.6135,99.9525
3839.5776,99.962
3840.5420,99.9885
3841.5061,100.025
3842.4705,100.066
3843.4346,100.097
3844.3989,100.1
3845.3630,100.067
3846.3274,100.012
3847.2915,99.968
3848.2559,99.9723
3849.2200,100.045
3850.1843,100.178
3851.1484,100.334
3852.1128,100.48
3853.0769,100.599
3854.0413,100.63
3855.0054,100.525
3855.9697,100.335
3856.9338,100.158
3857.8982,100.055
3858.8623,100.034
3859.8267,100.062
3860.7908,100.092
3861.7551,100.089
3862.7192,100.056
3863.6836,100.021
3864.6477,100.011
3865.6121,100.032
3866.5762,100.072
3867.5405,100.112
3868.5046,100.138
3869.4690,100.146
3870.4331,100.146
3871.3975,100.147
3872.3616,100.147
3873.3259,100.14
3874.2900,100.127
3875.2544,100.113
3876.2185,100.105
3877.1829,100.103
3878.1470,100.103
3879.1113,100.102
3880.0754,100.103
3881.0398,100.117
3882.0039,100.15
3882.9683,100.201
3883.9324,100.26
3884.8967,100.306
3885.8608,100.323
3886.8252,100.304
3887.7893,100.263
3888.7537,100.218
3889.7178,100.184
3890.6821,100.167
3891.6462,100.166
3892.6106,100.165
3893.5747,100.155
3894.5391,100.137
3895.5032,100.123
3896.4675,100.118
3897.4316,100.116
3898.3960,100.107
3899.3601,100.093
3900.3245,100.082
3901.2886,100.082
3902.2529,100.092
3903.2170,100.109
3904.1814,100.127
3905.1455,100.136
3906.1099,100.134
3907.0740,100.128
3908.0383,100.126
3909.0024,100.131
3909.9668,100.139
3910.9309,100.143
3911.8953,100.143
3912.8594,100.142
3913.8237,100.145
3914.7878,100.154
3915.7522,100.167
3916.7163,100.18
3917.6807,100.185
3918.6448,100.175
3919.6091,100.149
3920.5732,100.116
3921.5376,100.085
3922.5017,100.064
3923.4661,100.05
3924.4302,100.04
3925.3945,100.025
3926.3586,100.003
3927.3230,99.9789
3928.2871,99.9616
3929.2515,99.9583
3930.2156,99.9726
3931.1799,100.004
3932.1440,100.047
3933.1084,100.089
3934.0725,100.121
3935.0369,100.14
3936.0010,100.148
3936.9653,100.147
3937.9294,100.135
3938.8938,100.112
3939.8579,100.079
3940.8223,100.046
3941.7864,100.023
3942.7507,100.017
3943.7148,100.026
3944.6792,100.04
3945.6433,100.049
3946.6077,100.044
3947.5718,100.028
3948.5361,100.007
3949.5002,99.9901
3950.4646,99.9837
3951.4287,99.9874
3952.3931,99.9966
3953.3572,100.005
3954.3215,100.009
3955.2856,100.004
3956.2500,99.9926
3957.2141,99.9777
3958.1785,99.9647
3959.1426,99.9588
3960.1069,99.9638
3961.0710,99.9807
3962.0354,100.007
3962.9995,100.036
3963.9639,100.059
3964.9280,100.071
3965.8923,100.067
3966.8564,100.048
3967.8208,100.019
3968.7849,99.9843
3969.7493,99.9529
3970.7134,99.9312
3971.6777,99.9227
3972.6418,99.9269
3973.6062,99.9394
3974.5703,99.9533
3975.5347,99.9626
3976.4988,99.9646
3977.4631,99.9605
3978.4272,99.9536
3979.3916,99.9466
3980.3557,99.9402
3981.3201,99.9332
3982.2842,99.9248
3983.2485,99.9153
3984.2126,99.9066
3985.1770,99.8998
3986.1411,99.8942
3987.1055,99.8865
3988.0696,99.873
3989.0339,99.8523
3989.9980,99.8272
3990.9624,99.8045
3991.9265,99.792
3992.8909,99.7938
3993.8550,99.8077
3994.8193,99.827
3995.7834,99.8404
3996.7478,99.8401
3997.7119,99.8261
3998.6763,99.8064
3999.6404,99.7925
4000.6047,99.6892

##### Extended Information
[Comments]
Sample name
Comment
User
Division
Company,HANKYONG

[Detailed Information]
Creation date,4/24/2024 10:34 AM

Data array type,Linear data array
Horizontal axis,Wavenumber [cm-1]
Vertical axis,%T
Start,649.893 cm-1
End,4000.6 cm-1
Data interval,0.964233 cm-1
Data points,3476    

[Measurement Information]
Model Name,FT/IR-4700typeA
Serial Number,D056761788

Accessory,ATR PRO ONE
Accessory S/N,C174761809
Incident angle,45 deg

Measurement Date,4/24/2024 10:33 AM

Light Source,Standard
Detector,TGS
Accumulation,32
Resolution,4 cm-1
Zero Filling,On
Apodization,Cosine
Gain,Auto (4)
Aperture,Auto (7.1 mm)
Scanning Speed,Auto (2 mm/sec)
Filter,Auto (30000 Hz)

