TITLE,
DATA TYPE,INFRARED SPECTRUM
ORIGIN,JASCO
OWNER,
DATE,24/04/24
TIME,11:41:39
SPECTROMETER/DATA SYSTEM,
LOCALE,1033
RESOLUTION,
DELTAX,0.964233
XUNITS,1/CM
YUNITS,TRANSMITTANCE
FIRSTX,  649.8934
LASTX, 4000.6047
NPOINTS,    3476
FIRSTY,    97.89908
MAXY,   101.50047
MINY,    51.03438
XYDATA
649.8934,97.8991
650.8576,97.8343
651.8218,97.8439
652.7861,97.8937
653.7503,97.9542
654.7145,98.0141
655.6788,98.0755
656.6430,98.1438
657.6072,98.2209
658.5715,98.3092
659.5357,98.4164
660.4999,98.5508
661.4642,98.705
662.4284,98.7092
663.3926,98.6081
664.3569,98.352
665.3211,97.8526
666.2853,97.0429
667.2496,95.9982
668.2138,95.1037
669.1780,94.8309
670.1423,95.1602
671.1065,95.6971
672.0707,96.1554
673.0350,96.4474
673.9992,96.5884
674.9634,96.6339
675.9277,96.6493
676.8919,96.6861
677.8561,96.7656
678.8204,96.8843
679.7846,97.0346
680.7488,97.218
681.7131,97.443
682.6773,97.7143
683.6415,98.0257
684.6058,98.3611
685.5700,98.699
686.5342,99.0133
687.4985,99.2735
688.4627,99.4474
689.4269,99.5077
690.3912,99.4437
691.3554,99.2882
692.3196,99.1475
693.2839,99.1787
694.2481,99.4735
695.2123,99.9681
696.1766,100.512
697.1408,100.978
698.1050,101.293
699.0693,101.438
700.0335,101.44
700.9977,101.356
701.9620,101.248
702.9262,101.167
703.8904,101.141
704.8547,101.172
705.8189,101.247
706.7831,101.339
707.7474,101.422
708.7116,101.478
709.6758,101.5
710.6401,101.492
711.6043,101.455
712.5685,101.388
713.5328,101.282
714.4970,101.125
715.4612,101.213
716.4255,100.936
717.3897,100.653
718.3539,100.414
719.3182,100.268
720.2824,100.244
721.2466,100.335
722.2109,100.505
723.1751,100.704
724.1393,100.888
725.1036,101.028
726.0678,101.111
727.0320,101.138
727.9963,101.12
728.9605,101.08
729.9247,101.044
730.8890,101.032
731.8532,101.047
732.8174,101.08
733.7817,101.104
734.7459,101.094
735.7101,101.034
736.6744,100.918
737.6386,100.755
738.6028,100.557
739.5671,100.343
740.5313,100.128
741.4955,99.9245
742.4598,99.738
743.4240,99.565
744.3882,99.3975
745.3525,99.2294
746.3167,99.062
747.2809,98.9059
748.2452,98.7764
749.2094,98.6863
750.1736,98.6392
751.1379,98.6276
752.1021,98.6371
753.0663,98.6518
754.0306,98.6602
754.9948,98.6581
755.9590,98.6459
756.9233,98.6251
757.8875,98.5934
758.8517,98.5448
759.8160,98.4733
760.7802,98.379
761.7444,98.272
762.7087,98.1706
763.6729,98.093
764.6371,98.0496
765.6014,98.0382
766.5656,98.0481
767.5298,98.0681
768.4941,98.0925
769.4583,98.1219
770.4225,98.1571
771.3868,98.1931
772.3510,98.2174
773.3152,98.2155
774.2795,98.1781
775.2437,98.1066
776.2079,98.0112
777.1722,97.9051
778.1364,97.7975
779.1006,97.6899
780.0649,97.5779
781.0291,97.4556
781.9933,97.32
782.9576,97.1729
783.9218,97.0197
784.8860,96.8673
785.8503,96.7207
786.8145,96.5815
787.7787,96.4475
788.7430,96.3153
789.7072,96.183
790.6714,96.0533
791.6357,95.933
792.5999,95.8303
793.5641,95.749
794.5284,95.6854
795.4926,95.6286
796.4568,95.5651
797.4211,95.4862
798.3853,95.3907
799.3495,95.2839
800.3138,95.1715
801.2780,95.0542
802.2422,94.9264
803.2065,94.7794
804.1707,94.6066
805.1349,94.4065
806.0992,94.1818
807.0634,93.9353
808.0276,93.6676
808.9919,93.3772
809.9561,93.0644
810.9203,92.7357
811.8846,92.4049
812.8488,92.0911
813.8130,91.8122
814.7773,91.5797
815.7415,91.3955
816.7057,91.2527
817.6700,91.1402
818.6342,91.0485
819.5984,90.9735
820.5627,90.9172
821.5269,90.8843
822.4911,90.8774
823.4554,90.8947
824.4196,90.9297
825.3839,90.9745
826.3481,91.0218
827.3123,91.0652
828.2766,91.0969
829.2408,91.1053
830.2050,91.0765
831.1693,90.998
832.1335,90.8636
833.0977,90.6756
834.0620,90.4416
835.0262,90.1701
835.9904,89.8669
836.9547,89.5345
837.9189,89.1767
838.8831,88.8007
839.8474,88.419
840.8116,88.0453
841.7758,87.6905
842.7401,87.36
843.7043,87.055
844.6685,86.7753
845.6328,86.5233
846.5970,86.304
847.5612,86.1238
848.5255,85.9867
849.4897,85.892
850.4539,85.8332
851.4182,85.8003
852.3824,85.7827
853.3466,85.7732
854.3109,85.7702
855.2751,85.7771
856.2393,85.7997
857.2036,85.8413
858.1678,85.8999
859.1320,85.9686
860.0963,86.0399
861.0605,86.1124
862.0247,86.1936
862.9890,86.2976
863.9532,86.4378
864.9174,86.6186
865.8817,86.8324
866.8459,87.0638
867.8101,87.2989
868.7744,87.5327
869.7386,87.7703
870.7028,88.0202
871.6671,88.2838
872.6313,88.5498
873.5955,88.7964
874.5598,89.0007
875.5240,89.149
876.4882,89.2425
877.4525,89.295
878.4167,89.3237
879.3809,89.3409
880.3452,89.3501
881.3094,89.3471
882.2736,89.3266
883.2379,89.2868
884.2021,89.2317
885.1663,89.1688
886.1306,89.1059
887.0948,89.0482
888.0590,88.9981
889.0233,88.9571
889.9875,88.9273
890.9517,88.9117
891.9160,88.9126
892.8802,88.9286
893.8444,88.9537
894.8087,88.9776
895.7729,88.989
896.7371,88.979
897.7014,88.9439
898.6656,88.8858
899.6298,88.8103
900.5941,88.7244
901.5583,88.6334
902.5225,88.5398
903.4868,88.4438
904.4510,88.344
905.4152,88.2383
906.3795,88.1249
907.3437,88.0028
908.3079,87.8731
909.2722,87.7403
910.2364,87.6118
911.2006,87.4976
912.1649,87.4077
913.1291,87.3495
914.0933,87.3263
915.0576,87.3377
916.0218,87.3806
916.9860,87.452
917.9503,87.5502
918.9145,87.6757
919.8787,87.8302
920.8430,88.0165
921.8072,88.2374
922.7714,88.4943
923.7357,88.7866
924.6999,89.1107
925.6641,89.4613
926.6284,89.8334
927.5926,90.2255
928.5568,90.6413
929.5211,91.0893
930.4853,91.5802
931.4495,92.1233
932.4138,92.7238
933.3780,93.3808
934.3422,94.0873
935.3065,94.8298
936.2707,95.5887
937.2349,96.3388
938.1992,97.0522
939.1634,97.7023
940.1276,98.2698
941.0919,98.7447
942.0561,99.1268
943.0203,99.4211
943.9846,99.6335
944.9488,99.7688
945.9130,99.8316
946.8773,99.8293
947.8415,99.7735
948.8057,99.6782
949.7700,99.5553
950.7342,99.4403
951.6984,99.3908
952.6627,99.3125
953.6269,99.1997
954.5911,99.0503
955.5554,98.8647
956.5196,98.644
957.4838,98.3868
958.4481,98.0892
959.4123,97.746
960.3765,97.3541
961.3408,96.9147
962.3050,96.4352
963.2692,95.9277
964.2335,95.407
965.1977,94.888
966.1619,94.383
967.1262,93.8999
968.0904,93.4429
969.0546,93.0133
970.0189,92.612
970.9831,92.2402
971.9473,91.8989
972.9116,91.5889
973.8758,91.3088
974.8400,91.055
975.8043,90.8208
976.7685,90.5963
977.7327,90.3686
978.6970,90.1233
979.6612,89.8464
980.6254,89.5273
981.5897,89.1602
982.5539,88.7443
983.5181,88.2826
984.4824,87.7807
985.4466,87.2475
986.4108,86.696
987.3751,86.144
988.3393,85.6126
989.3035,85.1233
990.2678,84.6936
991.2320,84.3338
992.1962,84.0465
993.1605,83.8271
994.1247,83.6673
995.0889,83.5566
996.0532,83.485
997.0174,83.4425
997.9816,83.4184
998.9459,83.4004
999.9101,83.3731
1000.8743,83.3194
1001.8386,83.2207
1002.8028,83.0587
1003.7670,82.8158
1004.7313,82.4761
1005.6955,82.0257
1006.6597,81.4542
1007.6240,80.7559
1008.5882,79.9302
1009.5524,78.9814
1010.5167,77.918
1011.4809,76.7517
1012.4451,75.4963
1013.4094,74.1672
1014.3736,72.7792
1015.3378,71.3455
1016.3021,69.8775
1017.2663,68.3869
1018.2305,66.8875
1019.1948,65.3946
1020.1590,63.9218
1021.1232,62.4759
1022.0875,61.0564
1023.0517,59.6612
1024.0160,58.297
1024.9802,56.9868
1025.9445,55.7688
1026.9087,54.6849
1027.8729,53.7638
1028.8372,53.011
1029.8014,52.4091
1030.7656,51.9306
1031.7299,51.5538
1032.6941,51.2723
1033.6583,51.0946
1034.6226,51.0344
1035.5868,51.0991
1036.5510,51.2832
1037.5153,51.5682
1038.4795,51.9285
1039.4437,52.3388
1040.4080,52.7794
1041.3722,53.2381
1042.3364,53.71
1043.3007,54.1949
1044.2649,54.6962
1045.2291,55.2187
1046.1934,55.7687
1047.1576,56.354
1048.1218,56.9837
1049.0861,57.6673
1050.0503,58.4117
1051.0145,59.2173
1051.9788,60.076
1052.9430,60.9727
1053.9072,61.8923
1054.8715,62.827
1055.8357,63.7817
1056.7999,64.7681
1057.7642,65.7917
1058.7284,66.8356
1059.6926,67.8536
1060.6569,68.7812
1061.6211,69.5618
1062.5853,70.1758
1063.5496,70.6548
1064.5138,71.0695
1065.4780,71.4951
1066.4423,71.9735
1067.4065,72.4925
1068.3707,72.9939
1069.3350,73.4047
1070.2992,73.6719
1071.2634,73.7811
1072.2277,73.7534
1073.1919,73.6259
1074.1561,73.4314
1075.1204,73.189
1076.0846,72.907
1077.0488,72.5909
1078.0131,72.249
1078.9773,71.892
1079.9415,71.5289
1080.9058,71.1643
1081.8700,70.7987
1082.8342,70.432
1083.7985,70.0668
1084.7627,69.7103
1085.7269,69.3733
1086.6912,69.0686
1087.6554,68.807
1088.6196,68.5931
1089.5839,68.4219
1090.5481,68.2788
1091.5123,68.1433
1092.4766,67.9961
1093.4408,67.8251
1094.4050,67.6285
1095.3693,67.4118
1096.3335,67.183
1097.2977,66.9475
1098.2620,66.7065
1099.2262,66.458
1100.1904,66.2009
1101.1547,65.9366
1102.1189,65.6714
1103.0831,65.4156
1104.0474,65.1826
1105.0116,64.9877
1105.9758,64.8458
1106.9401,64.7708
1107.9043,64.7757
1108.8685,64.8738
1109.8328,65.0789
1110.7970,65.4053
1111.7612,65.8646
1112.7255,66.463
1113.6897,67.2002
1114.6539,68.0708
1115.6182,69.0682
1116.5824,70.1871
1117.5466,71.4247
1118.5109,72.7777
1119.4751,74.2395
1120.4393,75.7971
1121.4036,77.4325
1122.3678,79.1242
1123.3320,80.8513
1124.2963,82.5938
1125.2605,84.3334
1126.2247,86.0511
1127.1890,87.7264
1128.1532,89.3364
1129.1174,90.8569
1130.0817,92.2647
1131.0459,93.5404
1132.0101,94.6704
1132.9744,95.6483
1133.9386,96.4746
1134.9028,97.1543
1135.8671,97.6944
1136.8313,98.1012
1137.7955,98.3793
1138.7598,98.5319
1139.7240,98.5624
1140.6882,98.4589
1141.6525,98.1842
1142.6167,97.8124
1143.5809,97.3591
1144.5452,96.844
1145.5094,96.2905
1146.4736,95.7238
1147.4379,95.169
1148.4021,94.6484
1149.3663,94.1803
1150.3306,93.7784
1151.2948,93.4517
1152.2590,93.2048
1153.2233,93.036
1154.1875,92.9361
1155.1517,92.8881
1156.1160,92.8694
1157.0802,92.8554
1158.0444,92.8242
1159.0087,92.759
1159.9729,92.6483
1160.9371,92.4846
1161.9014,92.2629
1162.8656,91.9811
1163.8298,91.6413
1164.7941,91.2511
1165.7583,90.8227
1166.7225,90.3692
1167.6868,89.9016
1168.6510,89.4255
1169.6152,88.9426
1170.5795,88.4516
1171.5437,87.9513
1172.5079,87.44
1173.4722,86.9148
1174.4364,86.3706
1175.4006,85.8011
1176.3649,85.2018
1177.3291,84.5721
1178.2933,83.9174
1179.2576,83.2466
1180.2218,82.5692
1181.1860,81.8926
1182.1503,81.2211
1183.1145,80.5571
1184.0787,79.9029
1185.0430,79.2614
1186.0072,78.6356
1186.9714,78.0266
1187.9357,77.4338
1188.8999,76.8546
1189.8641,76.2865
1190.8284,75.7281
1191.7926,75.1796
1192.7568,74.6425
1193.7211,74.119
1194.6853,73.6114
1195.6495,73.1212
1196.6138,72.6489
1197.5780,72.1933
1198.5422,71.7516
1199.5065,71.3575
1200.4707,70.9324
1201.4349,70.5179
1202.3992,70.1182
1203.3634,69.7397
1204.3276,69.3892
1205.2919,69.0724
1206.2561,68.7933
1207.2203,68.5535
1208.1846,68.3532
1209.1488,68.1925
1210.1130,68.0724
1211.0773,67.9954
1212.0415,67.9646
1213.0057,67.9825
1213.9700,68.0496
1214.9342,68.1641
1215.8984,68.3225
1216.8627,68.5209
1217.8269,68.7552
1218.7911,69.0202
1219.7554,69.3091
1220.7196,69.6134
1221.6838,69.9237
1222.6481,70.2318
1223.6123,70.5316
1224.5765,70.8195
1225.5408,71.0933
1226.5050,71.3504
1227.4692,71.5855
1228.4335,71.7915
1229.3977,71.9612
1230.3619,72.0922
1231.3262,72.1901
1232.2904,72.2691
1233.2546,72.348
1234.2189,72.4438
1235.1831,72.5652
1236.1473,72.7104
1237.1116,72.8725
1238.0758,73.0466
1239.0400,73.2366
1240.0043,73.4541
1240.9685,73.7107
1241.9327,74.0075
1242.8970,74.3292
1243.8612,74.6474
1244.8254,74.9324
1245.7897,75.1656
1246.7539,75.3449
1247.7181,75.4816
1248.6824,75.5903
1249.6466,75.6799
1250.6108,75.7499
1251.5751,75.7932
1252.5393,75.8011
1253.5035,75.7684
1254.4678,75.6943
1255.4320,75.5824
1256.3962,75.4391
1257.3605,75.2727
1258.3247,75.0929
1259.2889,74.9103
1260.2532,74.7347
1261.2174,74.5736
1262.1816,74.4312
1263.1459,74.3088
1264.1101,74.2059
1265.0743,74.1217
1266.0386,74.0555
1267.0028,74.0084
1267.9670,73.9839
1268.9313,73.9881
1269.8955,74.0288
1270.8597,74.1129
1271.8240,74.2438
1272.7882,74.4197
1273.7524,74.6348
1274.7167,74.882
1275.6809,75.155
1276.6451,75.45
1277.6094,75.7645
1278.5736,76.0964
1279.5378,76.4414
1280.5021,76.7927
1281.4663,77.1416
1282.4305,77.4793
1283.3948,77.7999
1284.3590,78.1022
1285.3232,78.3899
1286.2875,78.6697
1287.2517,78.9481
1288.2159,79.2282
1289.1802,79.5083
1290.1444,79.7837
1291.1086,80.0495
1292.0729,80.3031
1293.0371,80.5458
1294.0013,80.781
1294.9656,81.0125
1295.9298,81.2425
1296.8940,81.4704
1297.8583,81.6928
1298.8225,81.9042
1299.7867,82.0983
1300.7510,82.2691
1301.7152,82.4121
1302.6794,82.5258
1303.6437,82.6122
1304.6079,82.6748
1305.5721,82.7171
1306.5364,82.7404
1307.5006,82.743
1308.4648,82.7221
1309.4291,82.6768
1310.3933,82.61
1311.3575,82.5289
1312.3218,82.4426
1313.2860,82.358
1314.2502,82.2775
1315.2145,82.1997
1316.1787,82.1237
1317.1429,82.052
1318.1072,81.9908
1319.0714,81.9452
1320.0356,81.9144
1320.9999,81.8904
1321.9641,81.8625
1322.9283,81.8236
1323.8926,81.7739
1324.8568,81.7209
1325.8210,81.6759
1326.7853,81.6504
1327.7495,81.6531
1328.7137,81.6898
1329.6780,81.7643
1330.6422,81.8775
1331.6064,82.0247
1332.5707,82.1935
1333.5349,82.365
1334.4991,82.5213
1335.4634,82.6536
1336.4276,82.7706
1337.3918,82.9007
1338.3561,83.0824
1339.3203,83.3365
1340.2845,83.6422
1341.2488,83.9475
1342.2130,84.2055
1343.1772,84.3958
1344.1415,84.5206
1345.1057,84.5925
1346.0699,84.6261
1347.0342,84.6354
1347.9984,84.6312
1348.9626,84.6193
1349.9269,84.5996
1350.8911,84.5683
1351.8553,84.523
1352.8196,84.4667
1353.7838,84.4082
1354.7480,84.3571
1355.7123,84.316
1356.6765,84.2777
1357.6407,84.23
1358.6050,84.1655
1359.5692,84.0898
1360.5334,84.0276
1361.4977,84.0163
1362.4619,84.079
1363.4261,84.1978
1364.3904,84.3261
1365.3546,84.4295
1366.3188,84.5025
1367.2831,84.5574
1368.2473,84.6055
1369.2115,84.6481
1370.1758,84.6786
1371.1400,84.6918
1372.1042,84.695
1373.0685,84.7107
1374.0327,84.7667
1374.9969,84.873
1375.9612,85.0115
1376.9254,85.1543
1377.8896,85.2882
1378.8539,85.4173
1379.8181,85.5498
1380.7823,85.6858
1381.7466,85.8163
1382.7108,85.933
1383.6750,86.0388
1384.6393,86.1493
1385.6035,86.2855
1386.5677,86.4545
1387.5320,86.625
1388.4962,86.7338
1389.4604,86.7328
1390.4247,86.6211
1391.3889,86.432
1392.3531,86.21
1393.3174,86.0039
1394.2816,85.863
1395.2458,85.8177
1396.2101,85.8537
1397.1743,85.914
1398.1385,85.9358
1399.1028,85.883
1400.0670,85.7515
1401.0313,85.5569
1401.9955,85.3209
1402.9597,85.0637
1403.9240,84.8035
1404.8882,84.5565
1405.8524,84.3304
1406.8167,84.1208
1407.7809,83.9158
1408.7451,83.7064
1409.7094,83.4884
1410.6736,83.2598
1411.6378,83.0193
1412.6021,82.7667
1413.5663,82.5038
1414.5305,82.2312
1415.4948,81.9404
1416.4590,81.6154
1417.4232,81.2524
1418.3875,80.8785
1419.3517,80.5247
1420.3159,80.1873
1421.2802,79.8488
1422.2444,79.5142
1423.2086,79.2068
1424.1729,78.9486
1425.1371,78.7485
1426.1013,78.6049
1427.0656,78.5155
1428.0298,78.4858
1428.9940,78.5251
1429.9583,78.6329
1430.9225,78.789
1431.8867,78.9662
1432.8510,79.1498
1433.8152,79.3393
1434.7794,79.5342
1435.7437,79.7206
1436.7079,79.8582
1437.6721,79.884
1438.6364,79.7594
1439.6006,79.5048
1440.5648,79.1695
1441.5291,78.7914
1442.4933,78.3846
1443.4575,77.9484
1444.4218,77.4792
1445.3860,76.9775
1446.3502,76.4522
1447.3145,75.9227
1448.2787,75.4151
1449.2429,74.9499
1450.2072,74.5367
1451.1714,74.1813
1452.1356,73.8905
1453.0999,73.6617
1454.0641,73.4668
1455.0283,73.261
1455.9926,73.0531
1456.9568,72.9652
1457.9210,73.0394
1458.8853,73.1029
1459.8495,73.0555
1460.8137,72.965
1461.7780,72.9439
1462.7422,73.0953
1463.7064,73.5092
1464.6707,74.214
1465.6349,75.1013
1466.5991,75.9834
1467.5634,76.7589
1468.5276,77.458
1469.4918,78.1677
1470.4561,78.9737
1471.4203,79.946
1472.3845,81.1057
1473.3488,82.3307
1474.3130,83.3745
1475.2772,84.0836
1476.2415,84.4844
1477.2057,84.6738
1478.1699,84.7343
1479.1342,84.7255
1480.0984,84.6979
1481.0626,84.6938
1482.0269,84.735
1482.9911,84.8139
1483.9553,84.9016
1484.9196,84.9625
1485.8838,84.965
1486.8480,84.8935
1487.8123,84.7791
1488.7765,84.7101
1489.7407,84.7411
1490.7050,84.8038
1491.6692,84.8005
1492.6334,84.7072
1493.5977,84.5444
1494.5619,84.3234
1495.5261,84.041
1496.4904,83.7118
1497.4546,83.3839
1498.4188,83.0853
1499.3831,82.7942
1500.3473,82.4999
1501.3115,82.237
1502.2758,82.0442
1503.2400,81.9082
1504.2042,81.7168
1505.1685,81.2478
1506.1327,80.3353
1507.0969,79.2532
1508.0612,78.4976
1509.0254,78.04
1509.9896,77.6311
1510.9539,77.1948
1511.9181,76.763
1512.8823,76.4021
1513.8466,76.2055
1514.8108,76.2819
1515.7750,76.7038
1516.7393,77.4587
1517.7035,78.4838
1518.6677,79.7688
1519.6320,81.3901
1520.5962,83.3836
1521.5604,85.567
1522.5247,87.5957
1523.4889,89.2588
1524.4531,90.6211
1525.4174,91.8687
1526.3816,93.0957
1527.3458,94.2437
1528.3101,95.206
1529.2743,95.9449
1530.2385,96.5142
1531.2028,97.0124
1532.1670,97.5259
1533.1312,98.071
1534.0955,98.5781
1535.0597,98.9737
1536.0239,99.2599
1536.9882,99.4686
1537.9524,99.5662
1538.9166,99.4454
1539.8809,99.12
1540.8451,98.9441
1541.8093,99.1743
1542.7736,99.5768
1543.7378,99.9131
1544.7020,100.139
1545.6663,100.266
1546.6305,100.306
1547.5947,100.277
1548.5590,100.207
1549.5232,100.121
1550.4874,100.022
1551.4517,99.9017
1552.4159,99.7823
1553.3801,99.6663
1554.3444,99.5926
1555.3086,99.5747
1556.2728,99.5685
1557.2371,99.5272
1558.2013,99.5523
1559.1655,99.7072
1560.1298,99.6766
1561.0940,99.2948
1562.0582,98.7429
1563.0225,98.2221
1563.9867,97.8226
1564.9509,97.5441
1565.9152,97.3335
1566.8794,97.1171
1567.8436,96.8369
1568.8079,96.4847
1569.7721,96.0999
1570.7363,95.7274
1571.7006,95.3923
1572.6648,95.0899
1573.6290,94.772
1574.5933,94.3577
1575.5575,93.8106
1576.5217,93.2102
1577.4860,92.6628
1578.4502,92.1771
1579.4144,91.7119
1580.3787,91.2414
1581.3429,90.7506
1582.3071,90.2289
1583.2714,89.678
1584.2356,89.1129
1585.1998,88.5486
1586.1641,87.9899
1587.1283,87.4359
1588.0925,86.8881
1589.0568,86.3535
1590.0210,85.8388
1590.9852,85.3463
1591.9495,84.8761
1592.9137,84.4331
1593.8779,84.0292
1594.8422,83.6762
1595.8064,83.3747
1596.7706,83.1116
1597.7349,82.8687
1598.6991,82.6336
1599.6633,82.4061
1600.6276,82.1966
1601.5918,82.0189
1602.5560,81.8813
1603.5203,81.7799
1604.4845,81.7015
1605.4487,81.6345
1606.4130,81.5802
1607.3772,81.5574
1608.3414,81.5923
1609.3057,81.6959
1610.2699,81.8518
1611.2341,82.0346
1612.1984,82.2397
1613.1626,82.4932
1614.1268,82.8477
1615.0911,83.3731
1616.0553,84.0972
1617.0195,84.8973
1617.9838,85.5571
1618.9480,85.9936
1619.9122,86.3017
1620.8765,86.6217
1621.8407,87.0403
1622.8049,87.5605
1623.7692,88.1102
1624.7334,88.5991
1625.6976,88.9936
1626.6619,89.3266
1627.6261,89.6395
1628.5903,89.937
1629.5546,90.2
1630.5188,90.4248
1631.4830,90.6332
1632.4473,90.8376
1633.4115,91.0111
1634.3757,91.1162
1635.3400,91.1895
1636.3042,91.3102
1637.2684,91.4404
1638.2327,91.493
1639.1969,91.4744
1640.1611,91.4453
1641.1254,91.4521
1642.0896,91.5063
1643.0538,91.5781
1644.0181,91.5968
1644.9823,91.4885
1645.9465,91.2726
1646.9108,91.0887
1647.8750,91.0467
1648.8392,91.1564
1649.8035,91.397
1650.7677,91.7115
1651.7319,91.9784
1652.6962,92.1067
1653.6604,92.1194
1654.6246,91.9623
1655.5889,91.5934
1656.5531,91.1561
1657.5173,90.8073
1658.4816,90.6016
1659.4458,90.503
1660.4100,90.4369
1661.3743,90.3499
1662.3385,90.2382
1663.3027,90.1193
1664.2670,90.002
1665.2312,89.8896
1666.1954,89.7752
1667.1597,89.6308
1668.1239,89.4292
1669.0881,89.1952
1670.0524,89.0048
1671.0166,88.9044
1671.9808,88.8787
1672.9451,88.8939
1673.9093,88.9133
1674.8735,88.8839
1675.8378,88.7477
1676.8020,88.484
1677.7662,88.1421
1678.7305,87.8176
1679.6947,87.5915
1680.6589,87.4805
1681.6232,87.425
1682.5874,87.336
1683.5516,87.1854
1684.5159,86.9914
1685.4801,86.715
1686.4443,86.3325
1687.4086,85.9025
1688.3728,85.5033
1689.3370,85.1826
1690.3013,84.953
1691.2655,84.7991
1692.2297,84.679
1693.1940,84.5288
1694.1582,84.2805
1695.1224,83.9036
1696.0867,83.4543
1697.0509,83.0761
1698.0151,82.898
1698.9794,82.895
1699.9436,82.8862
1700.9078,82.7081
1701.8721,82.3527
1702.8363,81.9345
1703.8005,81.5849
1704.7648,81.3858
1705.7290,81.3495
1706.6932,81.4245
1707.6575,81.5309
1708.6217,81.6139
1709.5859,81.6686
1710.5502,81.721
1711.5144,81.7946
1712.4786,81.8943
1713.4429,82.0128
1714.4071,82.1619
1715.3713,82.4196
1716.3356,82.9165
1717.2998,83.64
1718.2640,84.3214
1719.2283,84.7377
1720.1925,84.924
1721.1567,85.0387
1722.1210,85.2065
1723.0852,85.4711
1724.0494,85.8078
1725.0137,86.1579
1725.9779,86.4688
1726.9421,86.7214
1727.9064,86.9329
1728.8706,87.1411
1729.8348,87.3845
1730.7991,87.6952
1731.7633,88.1028
1732.7275,88.6254
1733.6918,89.2021
1734.6560,89.6652
1735.6202,89.9024
1736.5845,89.9771
1737.5487,90.0332
1738.5129,90.1722
1739.4772,90.4128
1740.4414,90.7069
1741.4056,90.9829
1742.3699,91.1952
1743.3341,91.3482
1744.2983,91.4783
1745.2626,91.621
1746.2268,91.7982
1747.1910,92.0319
1748.1553,92.3601
1749.1195,92.8127
1750.0837,93.3422
1751.0480,93.8177
1752.0122,94.1361
1752.9764,94.3011
1753.9407,94.3857
1754.9049,94.4619
1755.8691,94.5669
1756.8334,94.7026
1757.7976,94.8545
1758.7618,95.0117
1759.7261,95.1762
1760.6903,95.355
1761.6545,95.5439
1762.6188,95.7223
1763.5830,95.8695
1764.5472,95.9848
1765.5115,96.0861
1766.4757,96.1896
1767.4399,96.2949
1768.4042,96.3864
1769.3684,96.4526
1770.3326,96.5118
1771.2969,96.6176
1772.2611,96.8076
1773.2253,97.0396
1774.1896,97.2289
1775.1538,97.3428
1776.1180,97.4158
1777.0823,97.4984
1778.0465,97.6167
1779.0107,97.7682
1779.9750,97.9372
1780.9392,98.1096
1781.9034,98.2785
1782.8677,98.4385
1783.8319,98.5779
1784.7961,98.6796
1785.7604,98.7339
1786.7246,98.7522
1787.6888,98.7622
1788.6531,98.7854
1789.6173,98.8202
1790.5815,98.85
1791.5458,98.8702
1792.5100,98.8882
1793.4742,98.8937
1794.4385,98.8705
1795.4027,98.8334
1796.3669,98.817
1797.3312,98.842
1798.2954,98.9027
1799.2596,98.9811
1800.2239,99.062
1801.1881,99.1356
1802.1523,99.1931
1803.1166,99.2285
1804.0808,99.2423
1805.0450,99.2398
1806.0093,99.2256
1806.9735,99.2025
1807.9377,99.1742
1808.9020,99.1513
1809.8662,99.1492
1810.8304,99.1773
1811.7947,99.2292
1812.7589,99.2876
1813.7231,99.3387
1814.6874,99.3773
1815.6516,99.4027
1816.6158,99.4139
1817.5801,99.4106
1818.5443,99.3951
1819.5085,99.3744
1820.4728,99.3575
1821.4370,99.3505
1822.4012,99.3516
1823.3655,99.3527
1824.3297,99.3431
1825.2939,99.3149
1826.2582,99.2678
1827.2224,99.2133
1828.1866,99.1734
1829.1509,99.17
1830.1151,99.2039
1831.0793,99.2441
1832.0436,99.2543
1833.0078,99.2274
1833.9720,99.1828
1834.9363,99.1416
1835.9005,99.112
1836.8647,99.0915
1837.8290,99.0769
1838.7932,99.0832
1839.7574,99.125
1840.7217,99.1893
1841.6859,99.2593
1842.6501,99.3067
1843.6144,99.3178
1844.5786,99.3012
1845.5428,99.2689
1846.5071,99.2295
1847.4713,99.1993
1848.4355,99.1962
1849.3998,99.224
1850.3640,99.2687
1851.3282,99.31
1852.2925,99.3347
1853.2567,99.3424
1854.2209,99.3398
1855.1852,99.3334
1856.1494,99.3259
1857.1136,99.3181
1858.0779,99.3122
1859.0421,99.312
1860.0063,99.3178
1860.9706,99.3234
1861.9348,99.3183
1862.8990,99.295
1863.8633,99.2533
1864.8275,99.1984
1865.7917,99.1392
1866.7560,99.0949
1867.7202,99.0988
1868.6844,99.1722
1869.6487,99.2865
1870.6129,99.3829
1871.5771,99.4303
1872.5414,99.4402
1873.5056,99.4385
1874.4698,99.4407
1875.4341,99.4488
1876.3983,99.4586
1877.3625,99.4664
1878.3268,99.4716
1879.2910,99.4746
1880.2552,99.4752
1881.2195,99.4717
1882.1837,99.4624
1883.1479,99.448
1884.1122,99.4323
1885.0764,99.4206
1886.0406,99.4168
1887.0049,99.4219
1887.9691,99.434
1888.9333,99.4495
1889.8976,99.4614
1890.8618,99.4612
1891.8260,99.4458
1892.7903,99.4213
1893.7545,99.4
1894.7188,99.3935
1895.6830,99.4063
1896.6472,99.434
1897.6115,99.465
1898.5757,99.4882
1899.5399,99.4984
1900.5042,99.4971
1901.4684,99.4889
1902.4326,99.4774
1903.3969,99.463
1904.3611,99.4428
1905.3253,99.4144
1906.2896,99.3795
1907.2538,99.3456
1908.2180,99.3242
1909.1823,99.324
1910.1465,99.3437
1911.1107,99.3724
1912.0750,99.3995
1913.0392,99.423
1914.0034,99.4474
1914.9677,99.475
1915.9319,99.5011
1916.8961,99.5152
1917.8604,99.506
1918.8246,99.4678
1919.7888,99.4072
1920.7531,99.3441
1921.7173,99.3026
1922.6815,99.298
1923.6458,99.3279
1924.6100,99.3744
1925.5742,99.4162
1926.5385,99.4414
1927.5027,99.4504
1928.4669,99.4492
1929.4312,99.4438
1930.3954,99.4377
1931.3596,99.4325
1932.3239,99.4292
1933.2881,99.429
1934.2523,99.4318
1935.2166,99.4355
1936.1808,99.4359
1937.1450,99.43
1938.1093,99.4167
1939.0735,99.3969
1940.0377,99.3722
1941.0020,99.3464
1941.9662,99.3267
1942.9304,99.3191
1943.8947,99.3238
1944.8589,99.3367
1945.8231,99.3547
1946.7874,99.3775
1947.7516,99.4039
1948.7158,99.4297
1949.6801,99.4497
1950.6443,99.4606
1951.6085,99.4638
1952.5728,99.4638
1953.5370,99.4659
1954.5012,99.4723
1955.4655,99.4817
1956.4297,99.4911
1957.3939,99.4978
1958.3582,99.5021
1959.3224,99.5058
1960.2866,99.5099
1961.2509,99.5129
1962.2151,99.5113
1963.1793,99.5024
1964.1436,99.4872
1965.1078,99.472
1966.0720,99.4668
1967.0363,99.4797
1968.0005,99.5102
1968.9647,99.5488
1969.9290,99.5834
1970.8932,99.6065
1971.8574,99.6171
1972.8217,99.6193
1973.7859,99.6182
1974.7501,99.6184
1975.7144,99.6211
1976.6786,99.6255
1977.6428,99.6299
1978.6071,99.6333
1979.5713,99.6358
1980.5355,99.6379
1981.4998,99.6395
1982.4640,99.6398
1983.4282,99.6373
1984.3925,99.6308
1985.3567,99.6201
1986.3209,99.606
1987.2852,99.5903
1988.2494,99.5752
1989.2136,99.5636
1990.1779,99.5593
1991.1421,99.5654
1992.1063,99.582
1993.0706,99.6044
1994.0348,99.6248
1994.9990,99.6379
1995.9633,99.6428
1996.9275,99.6422
1997.8917,99.6398
1998.8560,99.6386
1999.8202,99.6401
2000.7844,99.6435
2001.7487,99.6467
2002.7129,99.6479
2003.6771,99.6458
2004.6414,99.6403
2005.6056,99.6328
2006.5698,99.625
2007.5341,99.6193
2008.4983,99.6174
2009.4625,99.6194
2010.4268,99.6231
2011.3910,99.6243
2012.3552,99.6185
2013.3195,99.6036
2014.2837,99.5811
2015.2479,99.5571
2016.2122,99.5398
2017.1764,99.5356
2018.1406,99.5448
2019.1049,99.5623
2020.0691,99.5802
2021.0333,99.5931
2021.9976,99.5994
2022.9618,99.6006
2023.9260,99.5995
2024.8903,99.5985
2025.8545,99.5983
2026.8187,99.5986
2027.7830,99.5984
2028.7472,99.597
2029.7114,99.5938
2030.6757,99.589
2031.6399,99.5833
2032.6041,99.5779
2033.5684,99.5745
2034.5326,99.5737
2035.4968,99.5744
2036.4611,99.5739
2037.4253,99.569
2038.3895,99.5584
2039.3538,99.5441
2040.3180,99.5309
2041.2822,99.5242
2042.2465,99.5264
2043.2107,99.5358
2044.1749,99.5468
2045.1392,99.554
2046.1034,99.5543
2047.0676,99.5482
2048.0320,99.539
2048.9961,99.5305
2049.9604,99.5253
2050.9246,99.5235
2051.8889,99.5237
2052.8530,99.524
2053.8174,99.5229
2054.7815,99.5205
2055.7458,99.5176
2056.7100,99.5151
2057.6743,99.5133
2058.6384,99.5107
2059.6028,99.5054
2060.5669,99.4958
2061.5313,99.4824
2062.4954,99.4685
2063.4597,99.4587
2064.4238,99.4571
2065.3882,99.4649
2066.3523,99.4796
2067.3167,99.4966
2068.2808,99.5119
2069.2451,99.5237
2070.2092,99.5322
2071.1736,99.5384
2072.1377,99.5433
2073.1021,99.5469
2074.0662,99.549
2075.0305,99.5501
2075.9946,99.5512
2076.9590,99.5536
2077.9231,99.5575
2078.8875,99.5625
2079.8516,99.5673
2080.8159,99.5711
2081.7800,99.5737
2082.7444,99.5756
2083.7085,99.5773
2084.6729,99.579
2085.6370,99.5806
2086.6013,99.5821
2087.5654,99.5835
2088.5298,99.5854
2089.4939,99.5878
2090.4583,99.5905
2091.4224,99.5932
2092.3867,99.5957
2093.3508,99.5987
2094.3152,99.6032
2095.2793,99.6097
2096.2437,99.6178
2097.2078,99.6257
2098.1721,99.6313
2099.1362,99.6331
2100.1006,99.6304
2101.0647,99.6279
2102.0291,99.6265
2102.9932,99.6279
2103.9575,99.6319
2104.9216,99.637
2105.8860,99.6411
2106.8501,99.6429
2107.8145,99.6419
2108.7786,99.6391
2109.7429,99.6354
2110.7070,99.632
2111.6714,99.6295
2112.6355,99.6286
2113.5999,99.63
2114.5640,99.6339
2115.5283,99.64
2116.4924,99.6469
2117.4568,99.6529
2118.4209,99.6564
2119.3853,99.6565
2120.3494,99.654
2121.3137,99.6502
2122.2778,99.6468
2123.2422,99.645
2124.2063,99.645
2125.1707,99.6461
2126.1348,99.6478
2127.0991,99.6498
2128.0632,99.6526
2129.0276,99.6568
2129.9917,99.6622
2130.9561,99.6676
2131.9202,99.6713
2132.8845,99.672
2133.8486,99.6701
2134.8130,99.6678
2135.7771,99.6681
2136.7415,99.673
2137.7056,99.6824
2138.6699,99.6945
2139.6340,99.706
2140.5984,99.715
2141.5625,99.7209
2142.5269,99.7249
2143.4910,99.7287
2144.4553,99.7339
2145.4194,99.7408
2146.3838,99.7492
2147.3479,99.758
2148.3123,99.766
2149.2764,99.772
2150.2407,99.7756
2151.2048,99.7767
2152.1692,99.7766
2153.1333,99.777
2154.0977,99.7797
2155.0618,99.7859
2156.0261,99.7953
2156.9902,99.8065
2157.9546,99.8177
2158.9187,99.8276
2159.8831,99.8358
2160.8472,99.8428
2161.8115,99.8492
2162.7756,99.8555
2163.7400,99.8615
2164.7041,99.8667
2165.6685,99.8708
2166.6326,99.8739
2167.5969,99.877
2168.5610,99.8808
2169.5254,99.886
2170.4895,99.8921
2171.4539,99.8984
2172.4180,99.9036
2173.3823,99.9071
2174.3464,99.9091
2175.3108,99.9104
2176.2749,99.9124
2177.2393,99.9156
2178.2034,99.92
2179.1677,99.9248
2180.1318,99.9287
2181.0962,99.9308
2182.0603,99.9308
2183.0247,99.9291
2183.9888,99.9271
2184.9531,99.9263
2185.9172,99.9278
2186.8816,99.9321
2187.8457,99.9387
2188.8101,99.9463
2189.7742,99.9537
2190.7385,99.96
2191.7026,99.9653
2192.6670,99.9704
2193.6311,99.9762
2194.5955,99.9829
2195.5596,99.9898
2196.5239,99.9956
2197.4880,99.9988
2198.4524,99.999
2199.4165,99.9968
2200.3809,99.9939
2201.3450,99.9922
2202.3093,99.9928
2203.2734,99.9956
2204.2378,99.9996
2205.2019,100.004
2206.1663,100.007
2207.1304,100.01
2208.0947,100.013
2209.0588,100.016
2210.0232,100.018
2210.9873,100.018
2211.9517,100.014
2212.9158,100.009
2213.8801,100.003
2214.8442,99.9995
2215.8086,100
2216.7727,100.004
2217.7371,100.009
2218.7012,100.013
2219.6655,100.014
2220.6296,100.012
2221.5940,100.01
2222.5581,100.008
2223.5225,100.007
2224.4866,100.006
2225.4509,100.005
2226.4150,100.003
2227.3794,99.9992
2228.3435,99.9952
2229.3079,99.991
2230.2720,99.9862
2231.2363,99.9804
2232.2004,99.9732
2233.1648,99.9648
2234.1289,99.9564
2235.0933,99.9497
2236.0574,99.9458
2237.0217,99.9451
2237.9858,99.9466
2238.9502,99.9483
2239.9143,99.9484
2240.8787,99.9455
2241.8428,99.9397
2242.8071,99.9316
2243.7712,99.9224
2244.7356,99.9134
2245.6997,99.905
2246.6641,99.8972
2247.6282,99.8894
2248.5925,99.8805
2249.5566,99.8695
2250.5210,99.8558
2251.4851,99.8398
2252.4495,99.8226
2253.4136,99.8056
2254.3779,99.7898
2255.3420,99.7752
2256.3064,99.7612
2257.2705,99.747
2258.2349,99.7323
2259.1990,99.7175
2260.1633,99.7033
2261.1274,99.6902
2262.0918,99.6783
2263.0559,99.6676
2264.0203,99.6583
2264.9844,99.6507
2265.9487,99.6452
2266.9128,99.6416
2267.8772,99.6384
2268.8413,99.6343
2269.8057,99.6281
2270.7698,99.6202
2271.7341,99.6122
2272.6982,99.6063
2273.6626,99.6044
2274.6267,99.6076
2275.5911,99.6162
2276.5552,99.6296
2277.5195,99.6465
2278.4836,99.6652
2279.4480,99.6828
2280.4121,99.6966
2281.3765,99.7034
2282.3406,99.7007
2283.3049,99.6869
2284.2690,99.6614
2285.2334,99.6254
2286.1975,99.5815
2287.1619,99.5339
2288.1260,99.4861
2289.0903,99.4398
2290.0544,99.394
2291.0188,99.3469
2291.9829,99.2978
2292.9473,99.2494
2293.9114,99.2063
2294.8757,99.1738
2295.8398,99.1547
2296.8042,99.149
2297.7683,99.1559
2298.7327,99.176
2299.6968,99.212
2300.6611,99.2664
2301.6252,99.3373
2302.5896,99.4154
2303.5537,99.4858
2304.5181,99.5331
2305.4822,99.55
2306.4465,99.5424
2307.4106,99.53
2308.3750,99.5386
2309.3391,99.5881
2310.3035,99.6824
2311.2676,99.8062
2312.2319,99.9336
2313.1960,100.041
2314.1604,100.121
2315.1245,100.182
2316.0889,100.246
2317.0530,100.331
2318.0173,100.443
2318.9814,100.566
2319.9458,100.663
2320.9099,100.683
2321.8743,100.586
2322.8384,100.361
2323.8027,100.045
2324.7668,99.7146
2325.7312,99.4537
2326.6953,99.3246
2327.6597,99.3401
2328.6238,99.4572
2329.5881,99.5911
2330.5522,99.6522
2331.5166,99.5886
2332.4807,99.4098
2333.4451,99.1741
2334.4092,98.9513
2335.3735,98.7875
2336.3376,98.6877
2337.3020,98.6223
2338.2661,98.5472
2339.2305,98.4314
2340.1946,98.2852
2341.1589,98.1906
2342.1230,98.265
2343.0874,98.5857
2344.0515,99.0431
2345.0159,99.3547
2345.9800,99.3351
2346.9443,99.0626
2347.9084,98.7635
2348.8728,98.6292
2349.8369,98.7203
2350.8013,98.9564
2351.7654,99.163
2352.7297,99.1765
2353.6938,98.9626
2354.6582,98.6281
2355.6223,98.2881
2356.5867,97.9677
2357.5508,97.6584
2358.5151,97.4017
2359.4792,97.2701
2360.4436,97.2875
2361.4077,97.4115
2362.3721,97.5962
2363.3362,97.8406
2364.3005,98.1708
2365.2646,98.5932
2366.2290,99.0766
2367.1931,99.5713
2368.1575,100.036
2369.1216,100.445
2370.0859,100.789
2371.0500,101.064
2372.0144,101.27
2372.9785,101.405
2373.9429,101.467
2374.9070,101.448
2375.8713,101.347
2376.8354,101.173
2377.7998,100.946
2378.7639,100.696
2379.7283,100.454
2380.6924,100.248
2381.6567,100.093
2382.6208,99.9947
2383.5852,99.947
2384.5493,99.9375
2385.5137,99.951
2386.4778,99.9737
2387.4421,99.9964
2388.4063,100.014
2389.3706,100.027
2390.3347,100.035
2391.2991,100.042
2392.2632,100.049
2393.2275,100.056
2394.1917,100.062
2395.1560,100.068
2396.1201,100.075
2397.0845,100.083
2398.0486,100.092
2399.0129,100.102
2399.9771,100.11
2400.9414,100.115
2401.9055,100.116
2402.8699,100.113
2403.8340,100.11
2404.7983,100.111
2405.7625,100.116
2406.7268,100.124
2407.6909,100.133
2408.6553,100.139
2409.6194,100.143
2410.5837,100.144
2411.5479,100.145
2412.5122,100.147
2413.4763,100.151
2414.4407,100.155
2415.4048,100.158
2416.3691,100.161
2417.3333,100.164
2418.2976,100.168
2419.2617,100.172
2420.2261,100.174
2421.1902,100.173
2422.1545,100.169
2423.1187,100.164
2424.0830,100.161
2425.0471,100.163
2426.0115,100.169
2426.9756,100.178
2427.9399,100.188
2428.9041,100.197
2429.8684,100.205
2430.8325,100.211
2431.7969,100.216
2432.7610,100.218
2433.7253,100.218
2434.6895,100.216
2435.6538,100.213
2436.6179,100.213
2437.5823,100.216
2438.5464,100.225
2439.5107,100.236
2440.4749,100.249
2441.4392,100.259
2442.4033,100.265
2443.3677,100.267
2444.3318,100.267
2445.2961,100.264
2446.2603,100.262
2447.2246,100.259
2448.1887,100.255
2449.1531,100.25
2450.1172,100.244
2451.0815,100.238
2452.0457,100.235
2453.0100,100.235
2453.9741,100.24
2454.9385,100.248
2455.9026,100.256
2456.8669,100.261
2457.8311,100.261
2458.7954,100.258
2459.7595,100.253
2460.7239,100.249
2461.6880,100.248
2462.6523,100.25
2463.6165,100.253
2464.5808,100.256
2465.5449,100.258
2466.5093,100.259
2467.4734,100.258
2468.4377,100.256
2469.4019,100.254
2470.3662,100.251
2471.3303,100.248
2472.2947,100.244
2473.2588,100.24
2474.2231,100.238
2475.1873,100.237
2476.1516,100.238
2477.1157,100.242
2478.0801,100.245
2479.0442,100.248
2480.0085,100.25
2480.9727,100.248
2481.9370,100.245
2482.9011,100.241
2483.8655,100.238
2484.8296,100.237
2485.7939,100.24
2486.7581,100.245
2487.7224,100.25
2488.6865,100.255
2489.6509,100.257
2490.6150,100.256
2491.5793,100.254
2492.5435,100.253
2493.5078,100.253
2494.4719,100.256
2495.4363,100.262
2496.4004,100.269
2497.3647,100.276
2498.3289,100.282
2499.2932,100.285
2500.2573,100.284
2501.2217,100.282
2502.1858,100.279
2503.1501,100.279
2504.1143,100.282
2505.0786,100.289
2506.0427,100.297
2507.0071,100.302
2507.9712,100.304
2508.9355,100.3
2509.8997,100.294
2510.8640,100.287
2511.8281,100.282
2512.7925,100.28
2513.7566,100.282
2514.7209,100.288
2515.6851,100.296
2516.6494,100.306
2517.6135,100.315
2518.5779,100.321
2519.5420,100.325
2520.5063,100.326
2521.4705,100.326
2522.4348,100.328
2523.3989,100.331
2524.3633,100.336
2525.3274,100.339
2526.2917,100.341
2527.2559,100.339
2528.2202,100.335
2529.1843,100.331
2530.1487,100.329
2531.1128,100.328
2532.0771,100.328
2533.0413,100.328
2534.0056,100.328
2534.9697,100.327
2535.9341,100.327
2536.8982,100.327
2537.8625,100.328
2538.8267,100.331
2539.7910,100.335
2540.7551,100.339
2541.7195,100.345
2542.6836,100.351
2543.6479,100.359
2544.6121,100.367
2545.5764,100.377
2546.5405,100.385
2547.5049,100.391
2548.4690,100.394
2549.4333,100.394
2550.3975,100.393
2551.3618,100.392
2552.3259,100.395
2553.2903,100.401
2554.2544,100.41
2555.2188,100.419
2556.1829,100.428
2557.1472,100.435
2558.1113,100.44
2559.0757,100.444
2560.0398,100.449
2561.0042,100.453
2561.9683,100.455
2562.9326,100.455
2563.8967,100.452
2564.8611,100.448
2565.8252,100.445
2566.7896,100.446
2567.7537,100.451
2568.7180,100.458
2569.6821,100.465
2570.6465,100.469
2571.6106,100.467
2572.5750,100.461
2573.5391,100.454
2574.5034,100.449
2575.4675,100.448
2576.4319,100.452
2577.3960,100.461
2578.3604,100.472
2579.3245,100.482
2580.2888,100.49
2581.2529,100.495
2582.2173,100.496
2583.1814,100.496
2584.1458,100.493
2585.1099,100.489
2586.0742,100.483
2587.0383,100.478
2588.0027,100.474
2588.9668,100.472
2589.9312,100.472
2590.8953,100.474
2591.8596,100.476
2592.8237,100.477
2593.7881,100.478
2594.7522,100.479
2595.7166,100.48
2596.6807,100.481
2597.6450,100.483
2598.6091,100.485
2599.5735,100.488
2600.5376,100.491
2601.5020,100.496
2602.4661,100.5
2603.4304,100.503
2604.3945,100.505
2605.3589,100.505
2606.3230,100.505
2607.2874,100.506
2608.2515,100.507
2609.2158,100.509
2610.1799,100.508
2611.1443,100.506
2612.1084,100.503
2613.0728,100.501
2614.0369,100.5
2615.0012,100.501
2615.9653,100.504
2616.9297,100.508
2617.8938,100.512
2618.8582,100.514
2619.8223,100.514
2620.7866,100.513
2621.7507,100.51
2622.7151,100.507
2623.6792,100.505
2624.6436,100.504
2625.6077,100.504
2626.5720,100.505
2627.5361,100.506
2628.5005,100.507
2629.4646,100.509
2630.4290,100.51
2631.3931,100.513
2632.3574,100.516
2633.3215,100.52
2634.2859,100.523
2635.2500,100.525
2636.2144,100.524
2637.1785,100.522
2638.1428,100.519
2639.1069,100.517
2640.0713,100.52
2641.0354,100.526
2641.9998,100.536
2642.9639,100.545
2643.9282,100.551
2644.8923,100.554
2645.8567,100.552
2646.8208,100.549
2647.7852,100.545
2648.7493,100.541
2649.7136,100.539
2650.6777,100.539
2651.6421,100.54
2652.6062,100.544
2653.5706,100.55
2654.5347,100.558
2655.4990,100.569
2656.4631,100.58
2657.4275,100.59
2658.3916,100.6
2659.3560,100.609
2660.3201,100.618
2661.2844,100.628
2662.2485,100.64
2663.2129,100.653
2664.1770,100.667
2665.1414,100.679
2666.1055,100.689
2667.0698,100.698
2668.0339,100.705
2668.9983,100.711
2669.9624,100.718
2670.9268,100.727
2671.8909,100.738
2672.8552,100.75
2673.8193,100.764
2674.7837,100.777
2675.7478,100.788
2676.7122,100.795
2677.6763,100.798
2678.6406,100.795
2679.6047,100.789
2680.5691,100.781
2681.5332,100.774
2682.4976,100.767
2683.4617,100.763
2684.4260,100.761
2685.3901,100.761
2686.3545,100.762
2687.3186,100.764
2688.2830,100.768
2689.2471,100.773
2690.2114,100.781
2691.1755,100.791
2692.1399,100.802
2693.1040,100.812
2694.0684,100.821
2695.0325,100.828
2695.9968,100.831
2696.9609,100.831
2697.9253,100.83
2698.8894,100.829
2699.8538,100.828
2700.8179,100.828
2701.7822,100.83
2702.7463,100.832
2703.7107,100.835
2704.6748,100.835
2705.6392,100.832
2706.6033,100.826
2707.5676,100.818
2708.5317,100.81
2709.4961,100.802
2710.4602,100.794
2711.4246,100.785
2712.3887,100.775
2713.3530,100.764
2714.3171,100.751
2715.2815,100.738
2716.2456,100.725
2717.2100,100.714
2718.1741,100.705
2719.1384,100.699
2720.1025,100.695
2721.0669,100.694
2722.0310,100.693
2722.9954,100.688
2723.9595,100.679
2724.9238,100.666
2725.8879,100.652
2726.8523,100.639
2727.8164,100.631
2728.7808,100.626
2729.7449,100.623
2730.7092,100.619
2731.6733,100.615
2732.6377,100.611
2733.6018,100.608
2734.5662,100.606
2735.5303,100.604
2736.4946,100.599
2737.4587,100.592
2738.4231,100.583
2739.3872,100.575
2740.3516,100.57
2741.3157,100.57
2742.2800,100.574
2743.2441,100.581
2744.2085,100.588
2745.1726,100.594
2746.1370,100.596
2747.1011,100.595
2748.0654,100.59
2749.0295,100.583
2749.9939,100.576
2750.9580,100.571
2751.9224,100.57
2752.8865,100.57
2753.8508,100.571
2754.8149,100.57
2755.7793,100.565
2756.7434,100.557
2757.7078,100.543
2758.6719,100.525
2759.6362,100.504
2760.6003,100.485
2761.5647,100.47
2762.5288,100.46
2763.4932,100.457
2764.4573,100.456
2765.4216,100.453
2766.3857,100.446
2767.3501,100.435
2768.3142,100.424
2769.2786,100.413
2770.2427,100.404
2771.2070,100.393
2772.1711,100.376
2773.1355,100.35
2774.0996,100.318
2775.0640,100.285
2776.0281,100.255
2776.9924,100.23
2777.9565,100.207
2778.9209,100.182
2779.8850,100.149
2780.8494,100.108
2781.8135,100.062
2782.7778,100.017
2783.7419,99.9773
2784.7063,99.9462
2785.6704,99.9223
2786.6348,99.9016
2787.5989,99.8788
2788.5632,99.8494
2789.5273,99.8111
2790.4917,99.7652
2791.4558,99.7151
2792.4202,99.6651
2793.3843,99.6181
2794.3486,99.5737
2795.3127,99.5291
2796.2771,99.4808
2797.2412,99.427
2798.2056,99.3685
2799.1697,99.3083
2800.1340,99.2486
2801.0981,99.1902
2802.0625,99.132
2803.0266,99.0724
2803.9910,99.0108
2804.9551,98.9476
2805.9194,98.8829
2806.8835,98.816
2807.8479,98.7444
2808.8120,98.6656
2809.7764,98.5787
2810.7405,98.4847
2811.7048,98.3867
2812.6689,98.2868
2813.6333,98.1855
2814.5974,98.0803
2815.5618,97.9675
2816.5259,97.8433
2817.4902,97.7056
2818.4543,97.554
2819.4187,97.3896
2820.3828,97.2138
2821.3472,97.0275
2822.3113,96.8302
2823.2756,96.6204
2824.2397,96.396
2825.2041,96.1548
2826.1682,95.896
2827.1326,95.6199
2828.0967,95.3283
2829.0610,95.0233
2830.0251,94.7071
2830.9895,94.3819
2831.9536,94.0497
2832.9180,93.7136
2833.8821,93.3772
2834.8464,93.0445
2835.8105,92.7191
2836.7749,92.4039
2837.7390,92.1013
2838.7034,91.8139
2839.6675,91.5437
2840.6318,91.291
2841.5959,91.0528
2842.5603,90.8221
2843.5244,90.5901
2844.4888,90.3517
2845.4529,90.11
2846.4172,89.878
2847.3813,89.6754
2848.3457,89.5195
2849.3098,89.4174
2850.2742,89.3613
2851.2383,89.332
2852.2026,89.3071
2853.1667,89.2697
2854.1311,89.2131
2855.0952,89.1391
2856.0596,89.0536
2857.0237,88.9608
2857.9880,88.8617
2858.9521,88.7544
2859.9165,88.6362
2860.8806,88.5054
2861.8450,88.3615
2862.8091,88.2049
2863.7734,88.0377
2864.7375,87.8637
2865.7019,87.688
2866.6660,87.5161
2867.6304,87.3521
2868.5945,87.1971
2869.5588,87.0502
2870.5229,86.9097
2871.4873,86.7753
2872.4514,86.6479
2873.4158,86.5292
2874.3799,86.4203
2875.3442,86.3206
2876.3083,86.2279
2877.2727,86.1391
2878.2368,86.052
2879.2012,85.9664
2880.1653,85.8847
2881.1296,85.8123
2882.0938,85.7555
2883.0581,85.7198
2884.0222,85.708
2884.9866,85.7185
2885.9507,85.7452
2886.9150,85.7792
2887.8792,85.811
2888.8435,85.8337
2889.8076,85.8451
2890.7720,85.8482
2891.7361,85.8484
2892.7004,85.8488
2893.6646,85.8449
2894.6289,85.8242
2895.5930,85.7706
2896.5574,85.6737
2897.5215,85.5375
2898.4858,85.3817
2899.4500,85.235
2900.4143,85.1223
2901.3784,85.0537
2902.3428,85.0203
2903.3069,85.0002
2904.2712,84.9693
2905.2354,84.9107
2906.1997,84.8184
2907.1638,84.6948
2908.1282,84.5454
2909.0923,84.3752
2910.0566,84.1872
2911.0208,83.985
2911.9851,83.7736
2912.9492,83.5608
2913.9136,83.3555
2914.8777,83.1661
2915.8420,82.9979
2916.8062,82.8522
2917.7705,82.7257
2918.7346,82.6121
2919.6990,82.5045
2920.6631,82.397
2921.6274,82.2864
2922.5916,82.1714
2923.5559,82.0518
2924.5200,81.9278
2925.4844,81.8007
2926.4485,81.6732
2927.4128,81.5505
2928.3770,81.4387
2929.3413,81.3435
2930.3054,81.2684
2931.2698,81.215
2932.2339,81.1846
2933.1982,81.1798
2934.1624,81.205
2935.1267,81.2651
2936.0908,81.3627
2937.0552,81.4964
2938.0193,81.6608
2938.9836,81.8487
2939.9478,82.0543
2940.9121,82.2753
2941.8762,82.5121
2942.8406,82.7656
2943.8047,83.0337
2944.7690,83.3095
2945.7332,83.5827
2946.6975,83.8424
2947.6616,84.0811
2948.6260,84.2965
2949.5901,84.491
2950.5544,84.6689
2951.5186,84.8342
2952.4829,84.9892
2953.4470,85.1348
2954.4114,85.2725
2955.3755,85.4054
2956.3398,85.5384
2957.3040,85.6763
2958.2683,85.8218
2959.2324,85.9734
2960.1968,86.1257
2961.1609,86.2713
2962.1252,86.4044
2963.0894,86.5235
2964.0537,86.6322
2965.0178,86.7377
2965.9822,86.8477
2966.9463,86.9681
2967.9106,87.1015
2968.8748,87.2492
2969.8391,87.4118
2970.8032,87.5907
2971.7676,87.7869
2972.7317,88.0006
2973.6960,88.2297
2974.6602,88.471
2975.6245,88.7205
2976.5886,88.9742
2977.5530,89.2293
2978.5171,89.4839
2979.4814,89.7365
2980.4456,89.9851
2981.4099,90.2248
2982.3740,90.4478
2983.3384,90.6454
2984.3025,90.8142
2985.2668,90.963
2986.2310,91.1145
2987.1953,91.3
2988.1594,91.5449
2989.1238,91.8553
2990.0879,92.2116
2991.0522,92.5759
2992.0164,92.9083
2992.9807,93.1844
2993.9448,93.4029
2994.9092,93.5821
2995.8733,93.7464
2996.8376,93.9143
2997.8018,94.0923
2998.7661,94.2777
2999.7302,94.4648
3000.6946,94.6513
3001.6587,94.84
3002.6230,95.0364
3003.5872,95.2451
3004.5515,95.4667
3005.5156,95.6961
3006.4800,95.9247
3007.4441,96.1435
3008.4084,96.3471
3009.3726,96.5362
3010.3369,96.7175
3011.3010,96.9002
3012.2654,97.0911
3013.2295,97.2899
3014.1938,97.4898
3015.1580,97.6803
3016.1223,97.8533
3017.0864,98.006
3018.0508,98.1413
3019.0149,98.2648
3019.9792,98.3817
3020.9434,98.4942
3021.9077,98.6024
3022.8718,98.7054
3023.8362,98.8031
3024.8003,98.8959
3025.7646,98.9839
3026.7288,99.0664
3027.6931,99.1422
3028.6572,99.2107
3029.6216,99.2732
3030.5857,99.3322
3031.5500,99.3905
3032.5142,99.4498
3033.4785,99.5094
3034.4426,99.5677
3035.4070,99.6221
3036.3711,99.671
3037.3354,99.7136
3038.2996,99.7494
3039.2639,99.778
3040.2280,99.7985
3041.1924,99.7786
3042.1565,99.7424
3043.1208,99.6949
3044.0850,99.6389
3045.0493,99.5794
3046.0134,99.5225
3046.9778,99.4723
3047.9419,99.4282
3048.9063,99.3844
3049.8704,99.3334
3050.8347,99.2693
3051.7988,99.1922
3052.7632,99.1076
3053.7273,99.024
3054.6917,98.9487
3055.6558,98.8852
3056.6201,98.8321
3057.5842,98.7842
3058.5486,98.7345
3059.5127,98.6763
3060.4771,98.6046
3061.4412,98.5186
3062.4055,98.4227
3063.3696,98.3259
3064.3340,98.239
3065.2981,98.1699
3066.2625,98.1192
3067.2266,98.0808
3068.1909,98.045
3069.1550,98.0038
3070.1194,97.9536
3071.0835,97.8952
3072.0479,97.8308
3073.0120,97.7616
3073.9763,97.6871
3074.9404,97.6064
3075.9048,97.52
3076.8689,97.4313
3077.8333,97.3451
3078.7974,97.2663
3079.7617,97.197
3080.7258,97.1361
3081.6902,97.0796
3082.6543,97.0229
3083.6187,96.9626
3084.5828,96.8981
3085.5471,96.8312
3086.5112,96.7643
3087.4756,96.6987
3088.4397,96.6326
3089.4041,96.5618
3090.3682,96.4818
3091.3325,96.3904
3092.2966,96.289
3093.2610,96.1817
3094.2251,96.0731
3095.1895,95.9659
3096.1536,95.8606
3097.1179,95.7572
3098.0820,95.657
3099.0464,95.5626
3100.0105,95.4771
3100.9749,95.401
3101.9390,95.3316
3102.9033,95.2635
3103.8674,95.1915
3104.8318,95.1127
3105.7959,95.0266
3106.7603,94.9343
3107.7244,94.8372
3108.6887,94.7355
3109.6528,94.6293
3110.6172,94.519
3111.5813,94.4054
3112.5457,94.2902
3113.5098,94.1755
3114.4741,94.0638
3115.4382,93.9574
3116.4026,93.8584
3117.3667,93.7673
3118.3311,93.6829
3119.2952,93.6022
3120.2595,93.5215
3121.2236,93.4375
3122.1880,93.3492
3123.1521,93.2578
3124.1165,93.166
3125.0806,93.076
3126.0449,92.9882
3127.0090,92.9004
3127.9734,92.809
3128.9375,92.7111
3129.9019,92.6066
3130.8660,92.4985
3131.8303,92.3919
3132.7944,92.2912
3133.7588,92.1981
3134.7229,92.1111
3135.6873,92.027
3136.6514,91.9431
3137.6157,91.8578
3138.5798,91.7708
3139.5442,91.6816
3140.5083,91.5893
3141.4727,91.4923
3142.4368,91.3895
3143.4011,91.281
3144.3652,91.1681
3145.3296,91.0538
3146.2937,90.9416
3147.2581,90.8354
3148.2222,90.7381
3149.1865,90.6496
3150.1506,90.5664
3151.1150,90.4816
3152.0791,90.3882
3153.0435,90.2824
3154.0076,90.166
3154.9719,90.0445
3155.9360,89.9246
3156.9004,89.8108
3157.8645,89.7039
3158.8289,89.6024
3159.7930,89.5041
3160.7573,89.4076
3161.7214,89.3116
3162.6858,89.2142
3163.6499,89.1127
3164.6143,89.0052
3165.5784,88.8925
3166.5427,88.7784
3167.5068,88.6687
3168.4712,88.5673
3169.4353,88.5262
3170.3997,88.437
3171.3638,88.3445
3172.3281,88.2428
3173.2922,88.1299
3174.2566,88.008
3175.2207,87.8824
3176.1851,87.7599
3177.1492,87.6463
3178.1135,87.5443
3179.0776,87.4529
3180.0420,87.3676
3181.0061,87.2827
3181.9705,87.1936
3182.9346,87.0984
3183.8989,86.998
3184.8630,86.8949
3185.8274,86.7913
3186.7915,86.6878
3187.7559,86.5843
3188.7200,86.4812
3189.6843,86.3797
3190.6484,86.2812
3191.6128,86.1857
3192.5769,86.0907
3193.5413,85.9925
3194.5054,85.8892
3195.4697,85.7826
3196.4338,85.6779
3197.3982,85.5811
3198.3623,85.4946
3199.3267,85.4165
3200.2908,85.3414
3201.2551,85.2638
3202.2192,85.1803
3203.1836,85.0901
3204.1477,84.9938
3205.1121,84.8926
3206.0762,84.7887
3207.0405,84.6856
3208.0046,84.5873
3208.9690,84.4963
3209.9331,84.4119
3210.8975,84.33
3211.8616,84.2458
3212.8259,84.1575
3213.7900,84.0675
3214.7544,83.981
3215.7185,83.9025
3216.6829,83.8327
3217.6470,83.7677
3218.6113,83.7018
3219.5754,83.6303
3220.5398,83.5521
3221.5039,83.4686
3222.4683,83.3828
3223.4324,83.2974
3224.3967,83.2141
3225.3608,83.1338
3226.3252,83.0575
3227.2893,82.9855
3228.2537,82.9174
3229.2178,82.8517
3230.1821,82.7857
3231.1462,82.7166
3232.1106,82.6427
3233.0747,82.5649
3234.0391,82.4859
3235.0032,82.4094
3235.9675,82.3378
3236.9316,82.2708
3237.8960,82.2052
3238.8601,82.1367
3239.8245,82.0626
3240.7886,81.9838
3241.7529,81.9051
3242.7170,81.8325
3243.6814,81.7713
3244.6455,81.7223
3245.6099,81.6818
3246.5740,81.6426
3247.5383,81.598
3248.5024,81.5441
3249.4668,81.4809
3250.4309,81.4117
3251.3953,81.3406
3252.3594,81.2709
3253.3237,81.2044
3254.2878,81.1413
3255.2522,81.0817
3256.2163,81.0269
3257.1807,80.9782
3258.1448,80.936
3259.1091,80.8984
3260.0732,80.8612
3261.0376,80.8191
3262.0017,80.7686
3262.9661,80.7092
3263.9302,80.6435
3264.8945,80.5754
3265.8586,80.5079
3266.8230,80.4422
3267.7871,80.3776
3268.7515,80.3133
3269.7156,80.2496
3270.6799,80.1884
3271.6440,80.1326
3272.6084,80.0843
3273.5725,80.0433
3274.5369,80.0074
3275.5010,79.9738
3276.4653,79.9403
3277.4294,79.9065
3278.3938,79.8725
3279.3579,79.8385
3280.3223,79.8039
3281.2864,79.7679
3282.2507,79.7307
3283.2148,79.6931
3284.1792,79.6555
3285.1433,79.6164
3286.1077,79.5722
3287.0718,79.5192
3288.0361,79.4563
3289.0002,79.3872
3289.9646,79.3193
3290.9287,79.2611
3291.8931,79.218
3292.8572,79.1905
3293.8215,79.1743
3294.7856,79.1629
3295.7500,79.1497
3296.7141,79.1296
3297.6785,79.1
3298.6426,79.0612
3299.6069,79.0159
3300.5710,78.9682
3301.5354,78.922
3302.4995,78.8796
3303.4639,78.8411
3304.4280,78.806
3305.3923,78.7744
3306.3564,78.747
3307.3208,78.7246
3308.2849,78.7066
3309.2493,78.6907
3310.2134,78.6749
3311.1777,78.6588
3312.1418,78.6443
3313.1062,78.6339
3314.0703,78.6277
3315.0347,78.6216
3315.9988,78.6083
3316.9631,78.5811
3317.9272,78.5379
3318.8916,78.4832
3319.8557,78.4264
3320.8201,78.3779
3321.7842,78.3443
3322.7485,78.3257
3323.7126,78.3174
3324.6770,78.3124
3325.6411,78.3055
3326.6055,78.2947
3327.5696,78.2808
3328.5339,78.265
3329.4980,78.2471
3330.4624,78.2261
3331.4265,78.201
3332.3909,78.1722
3333.3550,78.1419
3334.3193,78.1126
3335.2834,78.0858
3336.2478,78.0624
3337.2119,78.0427
3338.1763,78.028
3339.1404,78.02
3340.1047,78.0198
3341.0688,78.0258
3342.0332,78.0331
3342.9973,78.0362
3343.9617,78.0316
3344.9258,78.0204
3345.8901,78.0078
3346.8542,78.0002
3347.8186,78.0012
3348.7827,78.0098
3349.7471,78.0204
3350.7112,78.0264
3351.6755,78.0227
3352.6396,78.0082
3353.6040,77.9854
3354.5681,77.959
3355.5325,77.9343
3356.4966,77.9158
3357.4609,77.9066
3358.4250,77.9076
3359.3894,77.9165
3360.3535,77.9283
3361.3179,77.9365
3362.2820,77.9364
3363.2463,77.9274
3364.2104,77.9143
3365.1748,77.9058
3366.1389,77.9102
3367.1033,77.9314
3368.0674,77.9668
3369.0317,78.009
3369.9958,78.0492
3370.9602,78.0811
3371.9243,78.1017
3372.8887,78.1114
3373.8528,78.1129
3374.8171,78.1097
3375.7813,78.1064
3376.7456,78.1074
3377.7097,78.116
3378.6741,78.133
3379.6382,78.1565
3380.6025,78.1828
3381.5667,78.2086
3382.5310,78.2325
3383.4951,78.2546
3384.4595,78.2758
3385.4236,78.2952
3386.3879,78.3107
3387.3521,78.321
3388.3164,78.327
3389.2805,78.3327
3390.2449,78.3432
3391.2090,78.3627
3392.1733,78.3924
3393.1375,78.4315
3394.1018,78.4786
3395.0659,78.5329
3396.0303,78.5931
3396.9944,78.6555
3397.9587,78.7136
3398.9229,78.7603
3399.8872,78.7923
3400.8513,78.8126
3401.8157,78.8299
3402.7798,78.8542
3403.7441,78.8918
3404.7083,78.9431
3405.6726,79.0033
3406.6367,79.0654
3407.6011,79.1237
3408.5652,79.1752
3409.5295,79.2196
3410.4937,79.2591
3411.4580,79.2962
3412.4221,79.3333
3413.3865,79.3711
3414.3506,79.4085
3415.3149,79.4442
3416.2791,79.4774
3417.2434,79.5109
3418.2075,79.5507
3419.1719,79.6041
3420.1360,79.6755
3421.1003,79.7625
3422.0645,79.8557
3423.0288,79.9431
3423.9929,80.0155
3424.9573,80.0707
3425.9214,80.1138
3426.8857,80.155
3427.8499,80.2048
3428.8142,80.2695
3429.7783,80.3483
3430.7427,80.4346
3431.7068,80.5199
3432.6711,80.5988
3433.6353,80.6704
3434.5996,80.7376
3435.5637,80.8037
3436.5281,80.8697
3437.4922,80.9337
3438.4565,80.9931
3439.4207,81.0462
3440.3850,81.0939
3441.3491,81.1397
3442.3135,81.1879
3443.2776,81.2427
3444.2419,81.3074
3445.2061,81.3842
3446.1704,81.4727
3447.1345,81.5695
3448.0989,81.6688
3449.0630,81.765
3450.0273,81.8555
3450.9915,81.9407
3451.9558,82.0219
3452.9199,82.0997
3453.8843,82.1734
3454.8484,82.2428
3455.8127,82.3086
3456.7769,82.3729
3457.7412,82.4379
3458.7053,82.5051
3459.6697,82.5755
3460.6338,82.6492
3461.5981,82.7266
3462.5623,82.8083
3463.5266,82.8947
3464.4907,82.9856
3465.4551,83.0804
3466.4192,83.1776
3467.3835,83.2744
3468.3477,83.3676
3469.3120,83.4541
3470.2761,83.5337
3471.2405,83.61
3472.2046,83.6891
3473.1689,83.7763
3474.1331,83.8718
3475.0974,83.9691
3476.0615,84.0579
3477.0259,84.1313
3477.9900,84.1901
3478.9543,84.2441
3479.9185,84.3072
3480.8828,84.3896
3481.8469,84.4913
3482.8113,84.6025
3483.7754,84.7108
3484.7397,84.8093
3485.7039,84.8996
3486.6682,84.9895
3487.6323,85.0866
3488.5967,85.1929
3489.5608,85.3033
3490.5251,85.4091
3491.4893,85.5039
3492.4536,85.5872
3493.4177,85.6652
3494.3821,85.7461
3495.3462,85.8347
3496.3105,85.9277
3497.2747,86.0154
3498.2390,86.0901
3499.2031,86.153
3500.1675,86.2168
3501.1316,86.3013
3502.0959,86.4219
3503.0601,86.5758
3504.0244,86.7405
3504.9885,86.8894
3505.9529,87.0094
3506.9170,87.1053
3507.8813,87.1928
3508.8455,87.2879
3509.8098,87.3984
3510.7739,87.5221
3511.7383,87.6516
3512.7024,87.7826
3513.6667,87.9164
3514.6309,88.0546
3515.5952,88.193
3516.5593,88.3207
3517.5237,88.4257
3518.4878,88.5026
3519.4521,88.557
3520.4163,88.6038
3521.3806,88.6602
3522.3447,88.7373
3523.3091,88.8352
3524.2732,88.9463
3525.2375,89.0638
3526.2017,89.1888
3527.1660,89.3286
3528.1301,89.4875
3529.0945,89.6596
3530.0586,89.8294
3531.0229,89.9834
3531.9871,90.1186
3532.9514,90.2431
3533.9155,90.3706
3534.8799,90.5114
3535.8440,90.6663
3536.8083,90.8239
3537.7725,90.9661
3538.7368,91.0785
3539.7009,91.1573
3540.6653,91.2095
3541.6294,91.25
3542.5938,91.299
3543.5579,91.3808
3544.5222,91.5147
3545.4863,91.6981
3546.4507,91.9017
3547.4148,92.0893
3548.3792,92.2448
3549.3433,92.3781
3550.3076,92.5132
3551.2717,92.6708
3552.2361,92.8566
3553.2002,93.0563
3554.1646,93.2458
3555.1287,93.4084
3556.0930,93.542
3557.0571,93.6537
3558.0215,93.7495
3558.9856,93.8306
3559.9500,93.894
3560.9141,93.9381
3561.8784,93.966
3562.8425,93.984
3563.8069,94.0036
3564.7710,94.0533
3565.7354,94.1892
3566.6995,94.452
3567.6638,94.7909
3568.6279,95.0914
3569.5923,95.2899
3570.5564,95.4046
3571.5208,95.4834
3572.4849,95.559
3573.4492,95.6409
3574.4133,95.7256
3575.3777,95.809
3576.3418,95.8908
3577.3062,95.9724
3578.2703,96.0528
3579.2346,96.1269
3580.1987,96.1888
3581.1631,96.2384
3582.1272,96.2826
3583.0916,96.3301
3584.0557,96.3834
3585.0200,96.4438
3585.9841,96.5254
3586.9485,96.6451
3587.9126,96.7794
3588.8770,96.8683
3589.8411,96.882
3590.8054,96.8441
3591.7695,96.7948
3592.7339,96.7601
3593.6980,96.7486
3594.6624,96.7577
3595.6265,96.7771
3596.5908,96.7991
3597.5549,96.8297
3598.5193,96.8883
3599.4834,96.9914
3600.4478,97.1348
3601.4119,97.2919
3602.3762,97.4334
3603.3403,97.548
3604.3047,97.6432
3605.2688,97.7338
3606.2332,97.8339
3607.1973,97.9527
3608.1616,98.0823
3609.1257,98.1933
3610.0901,98.254
3611.0542,98.2553
3612.0186,98.2166
3612.9829,98.1714
3613.9470,98.1491
3614.9114,98.163
3615.8755,98.2097
3616.8398,98.2769
3617.8040,98.3546
3618.7683,98.4338
3619.7324,98.49
3620.6968,98.487
3621.6609,98.4192
3622.6252,98.3335
3623.5894,98.2963
3624.5537,98.3464
3625.5178,98.4702
3626.4822,98.6174
3627.4463,98.753
3628.4106,98.8829
3629.3748,98.9858
3630.3391,99.0045
3631.3032,98.9465
3632.2676,98.8856
3633.2317,98.8832
3634.1960,98.9472
3635.1602,99.0437
3636.1245,99.13
3637.0886,99.1834
3638.0530,99.206
3639.0171,99.2118
3639.9814,99.2106
3640.9456,99.205
3641.9099,99.1988
3642.8740,99.203
3643.8384,99.227
3644.8025,99.2565
3645.7668,99.2381
3646.7310,99.1193
3647.6953,98.9745
3648.6594,99.0275
3649.6238,99.3107
3650.5879,99.5621
3651.5522,99.6346
3652.5164,99.5949
3653.4807,99.5467
3654.4448,99.5349
3655.4092,99.5512
3656.3733,99.5672
3657.3376,99.5611
3658.3018,99.5328
3659.2661,99.5044
3660.2302,99.499
3661.1946,99.519
3662.1587,99.5463
3663.1230,99.5642
3664.0872,99.5763
3665.0515,99.5991
3666.0156,99.6367
3666.9800,99.6635
3667.9441,99.6464
3668.9084,99.5904
3669.8726,99.5375
3670.8369,99.5121
3671.8010,99.5057
3672.7654,99.4992
3673.7295,99.477
3674.6938,99.4547
3675.6580,99.477
3676.6223,99.5398
3677.5864,99.5839
3678.5508,99.5863
3679.5149,99.5715
3680.4792,99.5596
3681.4434,99.5486
3682.4077,99.5335
3683.3718,99.5252
3684.3362,99.5416
3685.3003,99.5789
3686.2646,99.5925
3687.2288,99.5246
3688.1931,99.3828
3689.1572,99.2693
3690.1216,99.258
3691.0857,99.3112
3692.0500,99.3674
3693.0142,99.4089
3693.9785,99.4424
3694.9426,99.4751
3695.9070,99.512
3696.8711,99.5591
3697.8354,99.6206
3698.7996,99.6939
3699.7639,99.7689
3700.7280,99.8332
3701.6924,99.8749
3702.6565,99.8833
3703.6208,99.8567
3704.5850,99.8105
3705.5493,99.7683
3706.5134,99.741
3707.4778,99.718
3708.4419,99.6905
3709.4063,99.7014
3710.3704,99.8475
3711.3347,100.151
3712.2988,100.47
3713.2632,100.651
3714.2273,100.667
3715.1917,100.582
3716.1558,100.462
3717.1201,100.335
3718.0842,100.205
3719.0486,100.064
3720.0127,99.9175
3720.9771,99.7789
3721.9412,99.6662
3722.9055,99.5921
3723.8696,99.5616
3724.8340,99.5683
3725.7981,99.594
3726.7625,99.6202
3727.7266,99.6428
3728.6909,99.6698
3729.6550,99.7036
3730.6194,99.7275
3731.5835,99.712
3732.5479,99.6489
3733.5120,99.5959
3734.4763,99.6499
3735.4404,99.8134
3736.4048,99.9559
3737.3689,99.9863
3738.3333,99.9575
3739.2974,99.9915
3740.2617,100.174
3741.2258,100.497
3742.1902,100.851
3743.1543,101.077
3744.1187,101.063
3745.0828,100.83
3746.0471,100.494
3747.0112,100.181
3747.9756,99.9676
3748.9397,99.8826
3749.9041,99.9437
3750.8682,100.142
3751.8325,100.321
3752.7966,100.341
3753.7610,100.219
3754.7251,100.058
3755.6895,99.9411
3756.6536,99.8966
3757.6179,99.9212
3758.5820,99.9961
3759.5464,100.086
3760.5105,100.151
3761.4749,100.179
3762.4390,100.18
3763.4033,100.175
3764.3674,100.175
3765.3318,100.182
3766.2959,100.193
3767.2603,100.208
3768.2244,100.228
3769.1887,100.26
3770.1528,100.301
3771.1172,100.336
3772.0813,100.348
3773.0457,100.339
3774.0098,100.322
3774.9741,100.31
3775.9382,100.301
3776.9026,100.286
3777.8667,100.265
3778.8311,100.243
3779.7952,100.217
3780.7595,100.176
3781.7236,100.118
3782.6880,100.057
3783.6521,100.018
3784.6165,100.022
3785.5806,100.073
3786.5449,100.153
3787.5090,100.236
3788.4734,100.298
3789.4375,100.334
3790.4019,100.35
3791.3660,100.354
3792.3303,100.341
3793.2944,100.299
3794.2588,100.221
3795.2229,100.12
3796.1873,100.028
3797.1514,99.974
3798.1157,99.9631
3799.0798,99.9747
3800.0442,99.9853
3801.0083,99.9889
3801.9727,99.9898
3802.9368,99.9951
3803.9011,100.023
3804.8652,100.095
3805.8296,100.206
3806.7937,100.317
3807.7581,100.37
3808.7222,100.337
3809.6865,100.254
3810.6506,100.196
3811.6150,100.215
3812.5791,100.296
3813.5435,100.371
3814.5076,100.368
3815.4719,100.27
3816.4360,100.117
3817.4004,99.9659
3818.3645,99.8612
3819.3289,99.8291
3820.2930,99.8718
3821.2573,99.9477
3822.2214,99.985
3823.1858,99.9482
3824.1499,99.8696
3825.1143,99.8086
3826.0784,99.8041
3827.0427,99.8578
3828.0068,99.9435
3828.9712,100.027
3829.9353,100.083
3830.8997,100.107
3831.8638,100.11
3832.8281,100.108
3833.7922,100.102
3834.7566,100.079
3835.7207,100.014
3836.6851,99.9005
3837.6492,99.7742
3838.6135,99.6897
3839.5776,99.6776
3840.5420,99.7317
3841.5061,99.8305
3842.4705,99.9461
3843.4346,100.041
3844.3989,100.076
3845.3630,100.038
3846.3274,99.9599
3847.2915,99.9107
3848.2559,99.9607
3849.2200,100.141
3850.1843,100.413
3851.1484,100.678
3852.1128,100.86
3853.0769,100.971
3854.0413,100.967
3855.0054,100.764
3855.9697,100.426
3856.9338,100.11
3857.8982,99.9235
3858.8623,99.875
3859.8267,99.9044
3860.7908,99.9292
3861.7551,99.9022
3862.7192,99.8456
3863.6836,99.8216
3864.6477,99.8643
3865.6121,99.9566
3866.5762,100.056
3867.5405,100.12
3868.5046,100.126
3869.4690,100.083
3870.4331,100.032
3871.3975,100.01
3872.3616,100.02
3873.3259,100.042
3874.2900,100.064
3875.2544,100.085
3876.2185,100.11
3877.1829,100.133
3878.1470,100.136
3879.1113,100.113
3880.0754,100.076
3881.0398,100.06
3882.0039,100.091
3882.9683,100.173
3883.9324,100.285
3884.8967,100.384
3885.8608,100.429
3886.8252,100.407
3887.7893,100.335
3888.7537,100.245
3889.7178,100.164
3890.6821,100.105
3891.6462,100.072
3892.6106,100.055
3893.5747,100.038
3894.5391,100.025
3895.5032,100.034
3896.4675,100.068
3897.4316,100.108
3898.3960,100.129
3899.3601,100.124
3900.3245,100.105
3901.2886,100.082
3902.2529,100.065
3903.2170,100.063
3904.1814,100.075
3905.1455,100.088
3906.1099,100.093
3907.0740,100.094
3908.0383,100.1
3909.0024,100.11
3909.9668,100.116
3910.9309,100.112
3911.8953,100.098
3912.8594,100.083
3913.8237,100.075
3914.7878,100.08
3915.7522,100.094
3916.7163,100.113
3917.6807,100.123
3918.6448,100.108
3919.6091,100.059
3920.5732,99.9861
3921.5376,99.9101
3922.5017,99.8534
3923.4661,99.829
3924.4302,99.8339
3925.3945,99.8497
3926.3586,99.8556
3927.3230,99.8434
3928.2871,99.8196
3929.2515,99.7994
3930.2156,99.8007
3931.1799,99.836
3932.1440,99.9001
3933.1084,99.969
3934.0725,100.018
3935.0369,100.04
3936.0010,100.042
3936.9653,100.033
3937.9294,100.019
3938.8938,99.9967
3939.8579,99.9667
3940.8223,99.9342
3941.7864,99.911
3942.7507,99.9057
3943.7148,99.9149
3944.6792,99.9255
3945.6433,99.9239
3946.6077,99.903
3947.5718,99.8669
3948.5361,99.8294
3949.5002,99.8065
3950.4646,99.8054
3951.4287,99.8214
3952.3931,99.8443
3953.3572,99.8647
3954.3215,99.8778
3955.2856,99.8834
3956.2500,99.8849
3957.2141,99.887
3958.1785,99.893
3959.1426,99.9036
3960.1069,99.9184
3961.0710,99.9362
3962.0354,99.9555
3962.9995,99.9732
3963.9639,99.9856
3964.9280,99.9888
3965.8923,99.9807
3966.8564,99.962
3967.8208,99.9367
3968.7849,99.9112
3969.7493,99.8926
3970.7134,99.8853
3971.6777,99.8895
3972.6418,99.901
3973.6062,99.9124
3974.5703,99.917
3975.5347,99.9116
3976.4988,99.8982
3977.4631,99.8832
3978.4272,99.8735
3979.3916,99.8735
3980.3557,99.8825
3981.3201,99.8958
3982.2842,99.9071
3983.2485,99.912
3984.2126,99.909
3985.1770,99.9003
3986.1411,99.8889
3987.1055,99.8769
3988.0696,99.8642
3989.0339,99.8489
3989.9980,99.8304
3990.9624,99.8108
3991.9265,99.796
3992.8909,99.7931
3993.8550,99.8056
3994.8193,99.8308
3995.7834,99.8591
3996.7478,99.8793
3997.7119,99.8848
3998.6763,99.8768
3999.6404,99.8636
4000.6047,99.6583

##### Extended Information
[Comments]
Sample name
Comment
User
Division
Company,HANKYONG

[Detailed Information]
Creation date,4/24/2024 11:41 AM

Data array type,Linear data array
Horizontal axis,Wavenumber [cm-1]
Vertical axis,%T
Start,649.893 cm-1
End,4000.6 cm-1
Data interval,0.964233 cm-1
Data points,3476    

[Measurement Information]
Model Name,FT/IR-4700typeA
Serial Number,D056761788

Accessory,ATR PRO ONE
Accessory S/N,C174761809
Incident angle,45 deg

Measurement Date,4/24/2024 11:41 AM

Light Source,Standard
Detector,TGS
Accumulation,32
Resolution,4 cm-1
Zero Filling,On
Apodization,Cosine
Gain,Auto (4)
Aperture,Auto (7.1 mm)
Scanning Speed,Auto (2 mm/sec)
Filter,Auto (30000 Hz)

