TITLE,
DATA TYPE,INFRARED SPECTRUM
ORIGIN,JASCO
OWNER,
DATE,24/04/24
TIME,11:43:15
SPECTROMETER/DATA SYSTEM,
LOCALE,1033
RESOLUTION,
DELTAX,0.964233
XUNITS,1/CM
YUNITS,TRANSMITTANCE
FIRSTX,  649.8934
LASTX, 4000.6047
NPOINTS,    3476
FIRSTY,   100.66753
MAXY,   102.45478
MINY,    54.43673
XYDATA
649.8934,100.668
650.8576,100.53
651.8218,100.423
652.7861,100.342
653.7503,100.271
654.7145,100.203
655.6788,100.136
656.6430,100.064
657.6072,99.9795
658.5715,99.8798
659.5357,99.7829
660.4999,99.7206
661.4642,99.7108
662.4284,99.7296
663.3926,99.7093
664.3569,99.5556
665.3211,99.1631
666.2853,98.4491
667.2496,97.4737
668.2138,96.6101
669.1780,96.3343
670.1423,96.6454
671.1065,97.1598
672.0707,97.591
673.0350,97.8478
673.9992,97.9448
674.9634,97.9403
675.9277,97.9079
676.8919,97.9103
677.8561,97.9802
678.8204,98.1202
679.7846,98.3181
680.7488,98.5572
681.7131,98.8173
682.6773,99.0763
683.6415,99.3181
684.6058,99.5404
685.5700,99.7533
686.5342,99.9652
687.4985,100.167
688.4627,100.329
689.4269,100.409
690.3912,100.376
691.3554,100.251
692.3196,100.129
693.2839,100.162
694.2481,100.438
695.2123,100.896
696.1766,101.39
697.1408,101.803
698.1050,102.073
699.0693,102.198
700.0335,102.214
700.9977,102.178
701.9620,102.139
702.9262,102.129
703.8904,102.156
704.8547,102.213
705.8189,102.288
706.7831,102.364
707.7474,102.423
708.7116,102.455
709.6758,102.454
710.6401,102.425
711.6043,102.375
712.5685,102.304
713.5328,102.205
714.4970,102.06
715.4612,102.133
716.4255,101.851
717.3897,101.546
718.3539,101.271
719.3182,101.087
720.2824,101.032
721.2466,101.104
722.2109,101.262
723.1751,101.448
724.1393,101.614
725.1036,101.732
726.0678,101.794
727.0320,101.809
727.9963,101.795
728.9605,101.775
729.9247,101.77
730.8890,101.789
731.8532,101.831
732.8174,101.876
733.7817,101.899
734.7459,101.875
735.7101,101.788
736.6744,101.635
737.6386,101.427
738.6028,101.18
739.5671,100.918
740.5313,100.662
741.4955,100.429
742.4598,100.226
743.4240,100.052
744.3882,99.8951
745.3525,99.7444
746.3167,99.5926
747.2809,99.4399
748.2452,99.2927
749.2094,99.1599
750.1736,99.0488
751.1379,98.963
752.1021,98.902
753.0663,98.8613
754.0306,98.8321
754.9948,98.8021
755.9590,98.7582
756.9233,98.6915
757.8875,98.6016
758.8517,98.4975
759.8160,98.3942
760.7802,98.3052
761.7444,98.2364
762.7087,98.1854
763.6729,98.1457
764.6371,98.114
765.6014,98.0937
766.5656,98.0916
767.5298,98.1118
768.4941,98.1503
769.4583,98.1953
770.4225,98.2333
771.3868,98.2557
772.3510,98.26
773.3152,98.2467
774.2795,98.2145
775.2437,98.159
776.2079,98.0767
777.1722,97.9696
778.1364,97.8462
779.1006,97.717
780.0649,97.5888
781.0291,97.4609
781.9933,97.3286
782.9576,97.1878
783.9218,97.0386
784.8860,96.8844
785.8503,96.728
786.8145,96.5703
787.7787,96.4111
788.7430,96.2528
789.7072,96.1018
790.6714,95.966
791.6357,95.8502
792.5999,95.7529
793.5641,95.6666
794.5284,95.5812
795.4926,95.4878
796.4568,95.3804
797.4211,95.2559
798.3853,95.1126
799.3495,94.9497
800.3138,94.7673
801.2780,94.5662
802.2422,94.3475
803.2065,94.1124
804.1707,93.8624
805.1349,93.5993
806.0992,93.3251
807.0634,93.0421
808.0276,92.752
808.9919,92.4566
809.9561,92.1583
810.9203,91.8606
811.8846,91.569
812.8488,91.2905
813.8130,91.0322
814.7773,90.7993
815.7415,90.5928
816.7057,90.4083
817.6700,90.2379
818.6342,90.0743
819.5984,89.9167
820.5627,89.7731
821.5269,89.6573
822.4911,89.5801
823.4554,89.5412
824.4196,89.5266
825.3839,89.5144
826.3481,89.4858
827.3123,89.433
828.2766,89.3599
829.2408,89.2743
830.2050,89.1785
831.1693,89.065
832.1335,88.9205
833.0977,88.7336
834.0620,88.5014
835.0262,88.2305
835.9904,87.9318
836.9547,87.6153
837.9189,87.2867
838.8831,86.9485
839.8474,86.6031
840.8116,86.2545
841.7758,85.9093
842.7401,85.5753
843.7043,85.2609
844.6685,84.9732
845.6328,84.7169
846.5970,84.4922
847.5612,84.2953
848.5255,84.1195
849.4897,83.9599
850.4539,83.8157
851.4182,83.6906
852.3824,83.5889
853.3466,83.5115
854.3109,83.4539
855.2751,83.4086
856.2393,83.3702
857.2036,83.3393
858.1678,83.3211
859.1320,83.3212
860.0963,83.3406
861.0605,83.3744
862.0247,83.4157
862.9890,83.4619
863.9532,83.5178
864.9174,83.5942
865.8817,83.7009
866.8459,83.8411
867.8101,84.0083
868.7744,84.1897
869.7386,84.3715
870.7028,84.5435
871.6671,84.6994
872.6313,84.8339
873.5955,84.941
874.5598,85.0146
875.5240,85.0522
876.4882,85.0577
877.4525,85.0412
878.4167,85.0146
879.3809,84.9862
880.3452,84.9576
881.3094,84.9258
882.2736,84.8885
883.2379,84.8478
884.2021,84.8103
885.1663,84.7831
886.1306,84.7696
887.0948,84.7674
888.0590,84.7716
889.0233,84.7791
889.9875,84.7916
890.9517,84.8156
891.9160,84.858
892.8802,84.9232
893.8444,85.0112
894.8087,85.1187
895.7729,85.241
896.7371,85.3728
897.7014,85.5083
898.6656,85.6409
899.6298,85.764
900.5941,85.8727
901.5583,85.965
902.5225,86.0417
903.4868,86.1053
904.4510,86.1569
905.4152,86.1958
906.3795,86.2198
907.3437,86.2267
908.3079,86.2165
909.2722,86.1923
910.2364,86.1604
911.2006,86.1294
912.1649,86.1091
913.1291,86.1086
914.0933,86.1349
915.0576,86.1915
916.0218,86.2784
916.9860,86.3935
917.9503,86.5356
918.9145,86.7057
919.8787,86.9071
920.8430,87.1428
921.8072,87.4123
922.7714,87.7099
923.7357,88.0262
924.6999,88.351
925.6641,88.6786
926.6284,89.009
927.5926,89.349
928.5568,89.7101
929.5211,90.107
930.4853,90.5559
931.4495,91.0727
932.4138,91.6699
933.3780,92.3526
934.3422,93.115
935.3065,93.9391
936.2707,94.7963
937.2349,95.6513
938.1992,96.4682
939.1634,97.2155
940.1276,97.8706
941.0919,98.4228
942.0561,98.8732
943.0203,99.2314
943.9846,99.5109
944.9488,99.7232
945.9130,99.8749
946.8773,99.9683
947.8415,100.005
948.8057,99.9876
949.7700,99.9231
950.7342,99.8185
951.6984,99.6798
952.6627,99.5333
953.6269,99.4301
954.5911,99.2968
955.5554,99.135
956.5196,98.9461
957.4838,98.73
958.4481,98.4834
959.4123,98.2009
960.3765,97.8775
961.3408,97.512
962.3050,97.1093
963.2692,96.6803
964.2335,96.24
965.1977,95.8043
966.1619,95.3861
967.1262,94.9927
968.0904,94.6249
969.0546,94.2789
970.0189,93.9502
970.9831,93.637
971.9473,93.3419
972.9116,93.0708
973.8758,92.829
974.8400,92.6169
975.8043,92.4289
976.7685,92.2532
977.7327,92.0758
978.6970,91.8832
979.6612,91.6647
980.6254,91.413
981.5897,91.1229
982.5539,90.791
983.5181,90.4164
984.4824,90.0021
985.4466,89.5571
986.4108,89.0962
987.3751,88.6387
988.3393,88.2043
989.3035,87.8091
990.2678,87.4633
991.2320,87.1712
992.1962,86.9323
993.1605,86.7434
994.1247,86.5995
995.0889,86.4936
996.0532,86.4162
997.0174,86.3561
997.9816,86.3012
998.9459,86.2402
999.9101,86.1628
1000.8743,86.0584
1001.8386,85.9144
1002.8028,85.7153
1003.7670,85.444
1004.7313,85.0847
1005.6955,84.6257
1006.6597,84.0614
1007.6240,83.3914
1008.5882,82.6191
1009.5524,81.7487
1010.5167,80.7848
1011.4809,79.7329
1012.4451,78.6001
1013.4094,77.3952
1014.3736,76.1282
1015.3378,74.8094
1016.3021,73.4495
1017.2663,72.0611
1018.2305,70.6593
1019.1948,69.2597
1020.1590,67.8742
1021.1232,66.5071
1022.0875,65.1547
1023.0517,63.8124
1024.0160,62.484
1024.9802,61.1896
1025.9445,59.9639
1026.9087,58.8459
1027.8729,57.8647
1028.8372,57.029
1029.8014,56.3288
1030.7656,55.7454
1031.7299,55.2646
1032.6941,54.8847
1033.6583,54.6141
1034.6226,54.4638
1035.5868,54.4367
1036.5510,54.5242
1037.5153,54.7072
1038.4795,54.962
1039.4437,55.2662
1040.4080,55.6022
1041.3722,55.9581
1042.3364,56.328
1043.3007,56.712
1044.2649,57.1147
1045.2291,57.5442
1046.1934,58.0098
1047.1576,58.5208
1048.1218,59.0864
1049.0861,59.7159
1050.0503,60.4168
1051.0145,61.1908
1051.9788,62.0293
1052.9430,62.9128
1053.9072,63.8168
1054.8715,64.7227
1055.8357,65.6264
1056.7999,66.5377
1057.7642,67.4677
1058.7284,68.4111
1059.6926,69.3345
1060.6569,70.1823
1061.6211,70.8992
1062.5853,71.4584
1063.5496,71.8789
1064.5138,72.2186
1065.4780,72.5457
1066.4423,72.904
1067.4065,73.2909
1068.3707,73.6603
1069.3350,73.9481
1070.2992,74.1035
1071.2634,74.1097
1072.2277,73.983
1073.1919,73.758
1074.1561,73.4669
1075.1204,73.1288
1076.0846,72.7498
1077.0488,72.3318
1078.0131,71.8812
1078.9773,71.4112
1079.9415,70.9385
1080.9058,70.4772
1081.8700,70.0349
1082.8342,69.6132
1083.7985,69.2119
1084.7627,68.8341
1085.7269,68.4897
1086.6912,68.1951
1087.6554,67.9687
1088.6196,67.8228
1089.5839,67.7573
1090.5481,67.7565
1091.5123,67.792
1092.4766,67.8318
1093.4408,67.8499
1094.4050,67.8335
1095.3693,67.7841
1096.3335,67.7138
1097.2977,67.6371
1098.2620,67.565
1099.2262,67.5013
1100.1904,67.4439
1101.1547,67.3883
1102.1189,67.3324
1103.0831,67.2794
1104.0474,67.2385
1105.0116,67.2228
1105.9758,67.2468
1106.9401,67.3237
1107.9043,67.4645
1108.8685,67.679
1109.8328,67.9774
1110.7970,68.3705
1111.7612,68.8702
1112.7255,69.4873
1113.6897,70.2297
1114.6539,71.1014
1115.6182,72.1018
1116.5824,73.2266
1117.5466,74.4682
1118.5109,75.8167
1119.4751,77.2597
1120.4393,78.7814
1121.4036,80.3629
1122.3678,81.9833
1123.3320,83.6213
1124.2963,85.2577
1125.2605,86.8761
1126.2247,88.4625
1127.1890,90.0023
1128.1532,91.4787
1129.1174,92.8713
1130.0817,94.159
1131.0459,95.3232
1132.0101,96.3519
1132.9744,97.2413
1133.9386,97.9947
1134.9028,98.5987
1135.8671,99.0182
1136.8313,99.3212
1137.7955,99.5112
1138.7598,99.5901
1139.7240,99.5613
1140.6882,99.4305
1141.6525,99.2068
1142.6167,98.9028
1143.5809,98.5338
1144.5452,98.1177
1145.5094,97.6745
1146.4736,97.2255
1147.4379,96.7924
1148.4021,96.395
1149.3663,96.0494
1150.3306,95.7663
1151.2948,95.5504
1152.2590,95.3997
1153.2233,95.3072
1154.1875,95.261
1155.1517,95.2459
1156.1160,95.2443
1157.0802,95.2378
1158.0444,95.2083
1159.0087,95.1402
1159.9729,95.0224
1160.9371,94.8495
1161.9014,94.6224
1162.8656,94.3472
1163.8298,94.0328
1164.7941,93.6877
1165.7583,93.3185
1166.7225,92.9285
1167.6868,92.519
1168.6510,92.0902
1169.6152,91.6434
1170.5795,91.1805
1171.5437,90.7036
1172.5079,90.2149
1173.4722,89.7154
1174.4364,89.2053
1175.4006,88.6841
1176.3649,88.1511
1177.3291,87.6049
1178.2933,87.044
1179.2576,86.4672
1180.2218,85.8743
1181.1860,85.2677
1182.1503,84.6527
1183.1145,84.0376
1184.0787,83.4319
1185.0430,82.8439
1186.0072,82.2784
1186.9714,81.736
1187.9357,81.2135
1188.8999,80.7056
1189.8641,80.2074
1190.8284,79.7155
1191.7926,79.2286
1192.7568,78.7474
1193.7211,78.2737
1194.6853,77.8101
1195.6495,77.3586
1196.6138,76.9197
1197.5780,76.4925
1198.5422,76.0741
1199.5065,75.7024
1200.4707,75.2913
1201.4349,74.8874
1202.3992,74.4951
1203.3634,74.1197
1204.3276,73.7664
1205.2919,73.4398
1206.2561,73.1445
1207.2203,72.8846
1208.1846,72.6637
1209.1488,72.4841
1210.1130,72.346
1211.0773,72.2478
1212.0415,72.1868
1213.0057,72.1608
1213.9700,72.1694
1214.9342,72.2136
1215.8984,72.2954
1216.8627,72.4161
1217.8269,72.5749
1218.7911,72.7669
1219.7554,72.9836
1220.7196,73.215
1221.6838,73.4511
1222.6481,73.6848
1223.6123,73.9115
1224.5765,74.1285
1225.5408,74.3329
1226.5050,74.5185
1227.4692,74.6764
1228.4335,74.7953
1229.3977,74.8661
1230.3619,74.8863
1231.3262,74.8651
1232.2904,74.824
1233.2546,74.793
1234.2189,74.8026
1235.1831,74.874
1236.1473,75.0149
1237.1116,75.2205
1238.0758,75.4817
1239.0400,75.7925
1240.0043,76.1523
1240.9685,76.5597
1241.9327,77.003
1242.8970,77.455
1243.8612,77.8775
1244.8254,78.2354
1245.7897,78.5108
1246.7539,78.709
1247.7181,78.8517
1248.6824,78.9633
1249.6466,79.0586
1250.6108,79.1381
1251.5751,79.1922
1252.5393,79.2091
1253.5035,79.1813
1254.4678,79.108
1255.4320,78.9939
1256.3962,78.8471
1257.3605,78.6777
1258.3247,78.4971
1259.2889,78.3162
1260.2532,78.1442
1261.2174,77.9865
1262.1816,77.8449
1263.1459,77.7196
1264.1101,77.6108
1265.0743,77.52
1266.0386,77.4487
1267.0028,77.3984
1267.9670,77.3707
1268.9313,77.3683
1269.8955,77.3955
1270.8597,77.4572
1271.8240,77.5568
1272.7882,77.6946
1273.7524,77.8677
1274.7167,78.0712
1275.6809,78.3004
1276.6451,78.5516
1277.6094,78.8213
1278.5736,79.1058
1279.5378,79.4001
1280.5021,79.6987
1281.4663,79.9962
1282.4305,80.2889
1283.3948,80.5742
1284.3590,80.8516
1285.3232,81.1214
1286.2875,81.385
1287.2517,81.6444
1288.2159,81.9014
1289.1802,82.1572
1290.1444,82.4114
1291.1086,82.6629
1292.0729,82.9101
1293.0371,83.1526
1294.0013,83.3906
1294.9656,83.6254
1295.9298,83.8578
1296.8940,84.0867
1297.8583,84.3091
1298.8225,84.5195
1299.7867,84.7114
1300.7510,84.8789
1301.7152,85.0174
1302.6794,85.126
1303.6437,85.2072
1304.6079,85.2652
1305.5721,85.3037
1306.5364,85.3239
1307.5006,85.3244
1308.4648,85.303
1309.4291,85.2592
1310.3933,85.1964
1311.3575,85.1217
1312.3218,85.0428
1313.2860,84.9648
1314.2502,84.8881
1315.2145,84.8107
1316.1787,84.7322
1317.1429,84.6564
1318.1072,84.5907
1319.0714,84.5408
1320.0356,84.5054
1320.9999,84.4756
1321.9641,84.4405
1322.9283,84.3933
1323.8926,84.3348
1324.8568,84.2726
1325.8210,84.2175
1326.7853,84.1804
1327.7495,84.1701
1328.7137,84.1931
1329.6780,84.2544
1330.6422,84.3546
1331.6064,84.4866
1332.5707,84.6346
1333.5349,84.7765
1334.4991,84.8936
1335.4634,84.98
1336.4276,85.0504
1337.3918,85.1407
1338.3561,85.2951
1339.3203,85.5348
1340.2845,85.8328
1341.2488,86.129
1342.2130,86.3715
1343.1772,86.5397
1344.1415,86.6388
1345.1057,86.6854
1346.0699,86.6973
1347.0342,86.6904
1347.9984,86.6759
1348.9626,86.6582
1349.9269,86.6352
1350.8911,86.6013
1351.8553,86.5528
1352.8196,86.4916
1353.7838,86.4264
1354.7480,86.3669
1355.7123,86.3163
1356.6765,86.2677
1357.6407,86.2089
1358.6050,86.131
1359.5692,86.0376
1360.5334,85.9508
1361.4977,85.9075
1362.4619,85.934
1363.4261,86.0179
1364.3904,86.1164
1365.3546,86.1949
1366.3188,86.2456
1367.2831,86.2768
1368.2473,86.2972
1369.2115,86.3074
1370.1758,86.3019
1371.1400,86.2782
1372.1042,86.2456
1373.0685,86.2277
1374.0327,86.2515
1374.9969,86.3249
1375.9612,86.4276
1376.9254,86.5307
1377.8896,86.6216
1378.8539,86.7072
1379.8181,86.7996
1380.7823,86.9028
1381.7466,87.0102
1382.7108,87.1138
1383.6750,87.2142
1384.6393,87.3242
1385.6035,87.4613
1386.5677,87.6298
1387.5320,87.7971
1388.4962,87.9003
1389.4604,87.8926
1390.4247,87.7746
1391.3889,87.5796
1392.3531,87.3516
1393.3174,87.1378
1394.2816,86.9871
1395.2458,86.931
1396.2101,86.9571
1397.1743,87.0104
1398.1385,87.0283
1399.1028,86.974
1400.0670,86.8428
1401.0313,86.6503
1401.9955,86.4187
1402.9597,86.1698
1403.9240,85.9239
1404.8882,85.6979
1405.8524,85.4995
1406.8167,85.3223
1407.7809,85.1533
1408.7451,84.9834
1409.7094,84.8097
1410.6736,84.6306
1411.6378,84.4425
1412.6021,84.2413
1413.5663,84.0257
1414.5305,83.7961
1415.4948,83.548
1416.4590,83.271
1417.4232,82.9661
1418.3875,82.6596
1419.3517,82.3734
1420.3159,82.0927
1421.2802,81.796
1422.2444,81.4898
1423.2086,81.1995
1424.1729,80.9475
1425.1371,80.7427
1426.1013,80.5847
1427.0656,80.4732
1428.0298,80.4148
1428.9940,80.4197
1429.9583,80.4883
1430.9225,80.6035
1431.8867,80.7425
1432.8510,80.8959
1433.8152,81.0669
1434.7794,81.2573
1435.7437,81.4525
1436.7079,81.6055
1437.6721,81.644
1438.6364,81.5253
1439.6006,81.2729
1440.5648,80.9424
1441.5291,80.5751
1442.4933,80.1854
1443.4575,79.771
1444.4218,79.327
1445.3860,78.8548
1446.3502,78.3652
1447.3145,77.8776
1448.2787,77.4131
1449.2429,76.984
1450.2072,76.5939
1451.1714,76.2481
1452.1356,75.9573
1453.0999,75.7228
1454.0641,75.5193
1455.0283,75.3045
1455.9926,75.0935
1456.9568,75.0184
1457.9210,75.117
1458.8853,75.1971
1459.8495,75.1496
1460.8137,75.0445
1461.7780,74.9952
1462.7422,75.0991
1463.7064,75.4371
1464.6707,76.0374
1465.6349,76.8073
1466.5991,77.5809
1467.5634,78.2685
1468.5276,78.8992
1469.4918,79.5535
1470.4561,80.3103
1471.4203,81.236
1472.3845,82.3537
1473.3488,83.5483
1474.3130,84.5767
1475.2772,85.282
1476.2415,85.6861
1477.2057,85.8829
1478.1699,85.9527
1479.1342,85.9527
1480.0984,85.9313
1481.0626,85.93
1482.0269,85.9717
1482.9911,86.0513
1483.9553,86.1421
1484.9196,86.2103
1485.8838,86.2256
1486.8480,86.1743
1487.8123,86.0889
1488.7765,86.0561
1489.7407,86.1226
1490.7050,86.2122
1491.6692,86.2265
1492.6334,86.1463
1493.5977,85.9972
1494.5619,85.7929
1495.5261,85.5302
1496.4904,85.2235
1497.4546,84.921
1498.4188,84.6507
1499.3831,84.3897
1500.3473,84.1264
1501.3115,83.8955
1502.2758,83.7371
1503.2400,83.6399
1504.2042,83.4962
1505.1685,83.0962
1506.1327,82.2969
1507.0969,81.3778
1508.0612,80.7829
1509.0254,80.4383
1509.9896,80.105
1510.9539,79.73
1511.9181,79.3545
1512.8823,79.0398
1513.8466,78.8649
1514.8108,78.9226
1515.7750,79.2781
1516.7393,79.9246
1517.7035,80.8105
1518.6677,81.9275
1519.6320,83.3435
1520.5962,85.093
1521.5604,87.019
1522.5247,88.818
1523.4889,90.3021
1524.4531,91.5278
1525.4174,92.6589
1526.3816,93.7747
1527.3458,94.817
1528.3101,95.6855
1529.2743,96.346
1530.2385,96.8471
1531.2028,97.2782
1532.1670,97.7188
1533.1312,98.1898
1534.0955,98.6346
1535.0597,98.9893
1536.0239,99.254
1536.9882,99.4516
1537.9524,99.5386
1538.9166,99.3979
1539.8809,99.0396
1540.8451,98.8269
1541.8093,99.0287
1542.7736,99.4096
1543.7378,99.7257
1544.7020,99.9646
1545.6663,100.106
1546.6305,100.163
1547.5947,100.154
1548.5590,100.105
1549.5232,100.041
1550.4874,99.9657
1551.4517,99.8724
1552.4159,99.7616
1553.3801,99.6589
1554.3444,99.6027
1555.3086,99.6039
1556.2728,99.6141
1557.2371,99.5789
1558.2013,99.5956
1559.1655,99.7379
1560.1298,99.7042
1561.0940,99.33
1562.0582,98.7925
1563.0225,98.2909
1563.9867,97.9136
1564.9509,97.658
1565.9152,97.469
1566.8794,97.272
1567.8436,97.0103
1568.8079,96.6798
1569.7721,96.3222
1570.7363,95.9815
1571.7006,95.6802
1572.6648,95.4138
1573.6290,95.1364
1574.5933,94.7707
1575.5575,94.2808
1576.5217,93.7393
1577.4860,93.2418
1578.4502,92.7941
1579.4144,92.3612
1580.3787,91.9245
1581.3429,91.4738
1582.3071,90.9989
1583.2714,90.4993
1584.2356,89.9864
1585.1998,89.473
1586.1641,88.9638
1587.1283,88.4589
1588.0925,87.9612
1589.0568,87.4782
1590.0210,87.0178
1590.9852,86.5823
1591.9495,86.1714
1592.9137,85.788
1593.8779,85.4407
1594.8422,85.138
1595.8064,84.8793
1596.7706,84.6524
1597.7349,84.4409
1598.6991,84.2339
1599.6633,84.0318
1600.6276,83.844
1601.5918,83.6835
1602.5560,83.5575
1603.5203,83.4619
1604.4845,83.3845
1605.4487,83.3154
1606.4130,83.258
1607.3772,83.2321
1608.3414,83.2631
1609.3057,83.3606
1610.2699,83.5067
1611.2341,83.6762
1612.1984,83.865
1613.1626,84.0982
1614.1268,84.424
1615.0911,84.9069
1616.0553,85.5737
1617.0195,86.3117
1617.9838,86.9171
1618.9480,87.3108
1619.9122,87.5837
1620.8765,87.8696
1621.8407,88.251
1622.8049,88.7313
1623.7692,89.2439
1624.7334,89.7046
1625.6976,90.081
1626.6619,90.4016
1627.6261,90.7027
1628.5903,90.9858
1629.5546,91.2316
1630.5188,91.4387
1631.4830,91.6304
1632.4473,91.8194
1633.4115,91.978
1634.3757,92.0695
1635.3400,92.1353
1636.3042,92.2597
1637.2684,92.4001
1638.2327,92.4611
1639.1969,92.4456
1640.1611,92.4153
1641.1254,92.4193
1642.0896,92.4712
1643.0538,92.5429
1644.0181,92.564
1644.9823,92.459
1645.9465,92.2442
1646.9108,92.0566
1647.8750,92.0064
1648.8392,92.1066
1649.8035,92.3382
1650.7677,92.6425
1651.7319,92.8921
1652.6962,92.9915
1653.6604,92.9689
1654.6246,92.7796
1655.5889,92.3831
1656.5531,91.9204
1657.5173,91.548
1658.4816,91.32
1659.4458,91.1994
1660.4100,91.1091
1661.3743,90.9932
1662.3385,90.8475
1663.3027,90.6919
1664.2670,90.5389
1665.2312,90.3939
1666.1954,90.2497
1667.1597,90.0763
1668.1239,89.8452
1669.0881,89.5815
1670.0524,89.364
1671.0166,89.2408
1671.9808,89.1951
1672.9451,89.1903
1673.9093,89.1878
1674.8735,89.1348
1675.8378,88.9751
1676.8020,88.69
1677.7662,88.3292
1678.7305,87.9878
1679.6947,87.746
1680.6589,87.6201
1681.6232,87.5498
1682.5874,87.4459
1683.5516,87.2812
1684.5159,87.0746
1685.4801,86.7865
1686.4443,86.3917
1687.4086,85.9484
1688.3728,85.5346
1689.3370,85.1982
1690.3013,84.9518
1691.2655,84.7794
1692.2297,84.638
1693.1940,84.4621
1694.1582,84.1825
1695.1224,83.7692
1696.0867,83.2814
1697.0509,82.8653
1698.0151,82.6491
1698.9794,82.6035
1699.9436,82.5466
1700.9078,82.3204
1701.8721,81.9238
1702.8363,81.4729
1703.8005,81.0965
1704.7648,80.8721
1705.7290,80.8087
1706.6932,80.855
1707.6575,80.9332
1708.6217,80.9903
1709.5859,81.0215
1710.5502,81.0516
1711.5144,81.1032
1712.4786,81.1813
1713.4429,81.2802
1714.4071,81.4131
1715.3713,81.6597
1716.3356,82.1504
1717.2998,82.8691
1718.2640,83.5436
1719.2283,83.9505
1720.1925,84.1268
1721.1567,84.2322
1722.1210,84.3927
1723.0852,84.653
1724.0494,84.9885
1725.0137,85.3394
1725.9779,85.6514
1726.9421,85.9043
1727.9064,86.1154
1728.8706,86.3239
1729.8348,86.5716
1730.7991,86.8947
1731.7633,87.3276
1732.7275,87.8888
1733.6918,88.5077
1734.6560,89.0027
1735.6202,89.2573
1736.5845,89.341
1737.5487,89.4068
1738.5129,89.5628
1739.4772,89.8307
1740.4414,90.1609
1741.4056,90.4762
1742.3699,90.7253
1743.3341,90.911
1744.2983,91.0719
1745.2626,91.2468
1746.2268,91.4603
1747.1910,91.7351
1748.1553,92.107
1749.1195,92.6008
1750.0837,93.1631
1751.0480,93.6607
1752.0122,93.9933
1752.9764,94.1697
1753.9407,94.2673
1754.9049,94.3607
1755.8691,94.4876
1756.8334,94.6484
1757.7976,94.8259
1758.7618,95.0069
1759.7261,95.1922
1760.6903,95.3889
1761.6545,95.5934
1762.6188,95.7857
1763.5830,95.9454
1764.5472,96.0721
1765.5115,96.1838
1766.4757,96.2968
1767.4399,96.4101
1768.4042,96.5083
1769.3684,96.5809
1770.3326,96.6492
1771.2969,96.7698
1772.2611,96.9812
1773.2253,97.2387
1774.1896,97.4541
1775.1538,97.594
1776.1180,97.6951
1777.0823,97.8098
1778.0465,97.9651
1779.0107,98.1565
1779.9750,98.3636
1780.9392,98.5682
1781.9034,98.7622
1782.8677,98.9424
1783.8319,99.1004
1784.7961,99.2205
1785.7604,99.2926
1786.7246,99.3265
1787.6888,99.349
1788.6531,99.3824
1789.6173,99.427
1790.5815,99.4682
1791.5458,99.503
1792.5100,99.5379
1793.4742,99.5594
1794.4385,99.5491
1795.4027,99.5221
1796.3669,99.5149
1797.3312,99.5492
1798.2954,99.62
1799.2596,99.7078
1800.2239,99.796
1801.1881,99.8743
1802.1523,99.9351
1803.1166,99.9746
1804.0808,99.9953
1805.0450,100.003
1806.0093,100.003
1806.9735,99.9947
1807.9377,99.9813
1808.9020,99.9714
1809.8662,99.9794
1810.8304,100.015
1811.7947,100.071
1812.7589,100.133
1813.7231,100.187
1814.6874,100.227
1815.6516,100.255
1816.6158,100.271
1817.5801,100.273
1818.5443,100.265
1819.5085,100.254
1820.4728,100.247
1821.4370,100.25
1822.4012,100.261
1823.3655,100.27
1824.3297,100.268
1825.2939,100.245
1826.2582,100.203
1827.2224,100.153
1828.1866,100.117
1829.1509,100.118
1830.1151,100.157
1831.0793,100.203
1832.0436,100.221
1833.0078,100.201
1833.9720,100.163
1834.9363,100.136
1835.9005,100.128
1836.8647,100.127
1837.8290,100.132
1838.7932,100.15
1839.7574,100.19
1840.7217,100.257
1841.6859,100.331
1842.6501,100.381
1843.6144,100.391
1844.5786,100.368
1845.5428,100.328
1846.5071,100.282
1847.4713,100.25
1848.4355,100.249
1849.3998,100.281
1850.3640,100.331
1851.3282,100.378
1852.2925,100.406
1853.2567,100.416
1854.2209,100.412
1855.1852,100.401
1856.1494,100.386
1857.1136,100.37
1858.0779,100.357
1859.0421,100.353
1860.0063,100.358
1860.9706,100.365
1861.9348,100.362
1862.8990,100.34
1863.8633,100.298
1864.8275,100.241
1865.7917,100.179
1866.7560,100.132
1867.7202,100.132
1868.6844,100.202
1869.6487,100.314
1870.6129,100.408
1871.5771,100.455
1872.5414,100.464
1873.5056,100.461
1874.4698,100.462
1875.4341,100.468
1876.3983,100.475
1877.3625,100.479
1878.3268,100.48
1879.2910,100.479
1880.2552,100.477
1881.2195,100.47
1882.1837,100.458
1883.1479,100.441
1884.1122,100.424
1885.0764,100.411
1886.0406,100.407
1887.0049,100.411
1887.9691,100.421
1888.9333,100.432
1889.8976,100.438
1890.8618,100.432
1891.8260,100.414
1892.7903,100.389
1893.7545,100.371
1894.7188,100.367
1895.6830,100.38
1896.6472,100.405
1897.6115,100.431
1898.5757,100.448
1899.5399,100.453
1900.5042,100.449
1901.4684,100.439
1902.4326,100.426
1903.3969,100.41
1904.3611,100.386
1905.3253,100.354
1906.2896,100.314
1907.2538,100.277
1908.2180,100.255
1909.1823,100.256
1910.1465,100.278
1911.1107,100.309
1912.0750,100.336
1913.0392,100.358
1914.0034,100.377
1914.9677,100.397
1915.9319,100.414
1916.8961,100.42
1917.8604,100.403
1918.8246,100.361
1919.7888,100.3
1920.7531,100.239
1921.7173,100.2
1922.6815,100.196
1923.6458,100.224
1924.6100,100.266
1925.5742,100.303
1926.5385,100.324
1927.5027,100.331
1928.4669,100.33
1929.4312,100.326
1930.3954,100.322
1931.3596,100.318
1932.3239,100.314
1933.2881,100.312
1934.2523,100.311
1935.2166,100.312
1936.1808,100.309
1937.1450,100.301
1938.1093,100.286
1939.0735,100.265
1940.0377,100.239
1941.0020,100.212
1941.9662,100.192
1942.9304,100.185
1943.8947,100.191
1944.8589,100.207
1945.8231,100.228
1946.7874,100.252
1947.7516,100.278
1948.7158,100.302
1949.6801,100.318
1950.6443,100.325
1951.6085,100.322
1952.5728,100.317
1953.5370,100.312
1954.5012,100.312
1955.4655,100.317
1956.4297,100.324
1957.3939,100.332
1958.3582,100.339
1959.3224,100.345
1960.2866,100.349
1961.2509,100.348
1962.2151,100.341
1963.1793,100.327
1964.1436,100.307
1965.1078,100.29
1966.0720,100.284
1967.0363,100.294
1968.0005,100.321
1968.9647,100.354
1969.9290,100.383
1970.8932,100.403
1971.8574,100.414
1972.8217,100.42
1973.7859,100.423
1974.7501,100.425
1975.7144,100.426
1976.6786,100.426
1977.6428,100.423
1978.6071,100.421
1979.5713,100.419
1980.5355,100.419
1981.4998,100.419
1982.4640,100.417
1983.4282,100.411
1984.3925,100.4
1985.3567,100.386
1986.3209,100.369
1987.2852,100.353
1988.2494,100.339
1989.2136,100.328
1990.1779,100.323
1991.1421,100.326
1992.1063,100.337
1993.0706,100.353
1994.0348,100.368
1994.9990,100.378
1995.9633,100.38
1996.9275,100.377
1997.8917,100.372
1998.8560,100.368
1999.8202,100.367
2000.7844,100.371
2001.7487,100.376
2002.7129,100.379
2003.6771,100.376
2004.6414,100.368
2005.6056,100.356
2006.5698,100.345
2007.5341,100.337
2008.4983,100.334
2009.4625,100.335
2010.4268,100.335
2011.3910,100.331
2012.3552,100.32
2013.3195,100.3
2014.2837,100.277
2015.2479,100.255
2016.2122,100.241
2017.1764,100.24
2018.1406,100.25
2019.1049,100.265
2020.0691,100.278
2021.0333,100.285
2021.9976,100.286
2022.9618,100.283
2023.9260,100.279
2024.8903,100.278
2025.8545,100.28
2026.8187,100.282
2027.7830,100.283
2028.7472,100.282
2029.7114,100.277
2030.6757,100.271
2031.6399,100.264
2032.6041,100.259
2033.5684,100.256
2034.5326,100.255
2035.4968,100.253
2036.4611,100.249
2037.4253,100.243
2038.3895,100.233
2039.3538,100.221
2040.3180,100.21
2041.2822,100.204
2042.2465,100.203
2043.2107,100.207
2044.1749,100.212
2045.1392,100.216
2046.1034,100.216
2047.0676,100.213
2048.0320,100.208
2048.9961,100.203
2049.9604,100.199
2050.9246,100.196
2051.8889,100.194
2052.8530,100.193
2053.8174,100.192
2054.7815,100.19
2055.7458,100.185
2056.7100,100.18
2057.6743,100.173
2058.6384,100.166
2059.6028,100.157
2060.5669,100.147
2061.5313,100.136
2062.4954,100.126
2063.4597,100.12
2064.4238,100.12
2065.3882,100.128
2066.3523,100.141
2067.3167,100.155
2068.2808,100.167
2069.2451,100.174
2070.2092,100.178
2071.1736,100.18
2072.1377,100.182
2073.1021,100.184
2074.0662,100.186
2075.0305,100.188
2075.9946,100.189
2076.9590,100.189
2077.9231,100.189
2078.8875,100.189
2079.8516,100.189
2080.8159,100.189
2081.7800,100.189
2082.7444,100.189
2083.7085,100.19
2084.6729,100.193
2085.6370,100.198
2086.6013,100.204
2087.5654,100.209
2088.5298,100.213
2089.4939,100.214
2090.4583,100.212
2091.4224,100.209
2092.3867,100.206
2093.3508,100.206
2094.3152,100.208
2095.2793,100.212
2096.2437,100.217
2097.2078,100.221
2098.1721,100.224
2099.1362,100.225
2100.1006,100.224
2101.0647,100.224
2102.0291,100.225
2102.9932,100.226
2103.9575,100.228
2104.9216,100.229
2105.8860,100.227
2106.8501,100.224
2107.8145,100.219
2108.7786,100.213
2109.7429,100.206
2110.7070,100.199
2111.6714,100.193
2112.6355,100.189
2113.5999,100.188
2114.5640,100.191
2115.5283,100.198
2116.4924,100.206
2117.4568,100.213
2118.4209,100.217
2119.3853,100.216
2120.3494,100.211
2121.3137,100.204
2122.2778,100.197
2123.2422,100.192
2124.2063,100.19
2125.1707,100.189
2126.1348,100.191
2127.0991,100.195
2128.0632,100.201
2129.0276,100.207
2129.9917,100.213
2130.9561,100.216
2131.9202,100.215
2132.8845,100.21
2133.8486,100.202
2134.8130,100.194
2135.7771,100.192
2136.7415,100.196
2137.7056,100.206
2138.6699,100.22
2139.6340,100.231
2140.5984,100.238
2141.5625,100.24
2142.5269,100.24
2143.4910,100.241
2144.4553,100.246
2145.4194,100.255
2146.3838,100.265
2147.3479,100.273
2148.3123,100.278
2149.2764,100.279
2150.2407,100.277
2151.2048,100.275
2152.1692,100.275
2153.1333,100.277
2154.0977,100.28
2155.0618,100.284
2156.0261,100.288
2156.9902,100.292
2157.9546,100.296
2158.9187,100.301
2159.8831,100.308
2160.8472,100.318
2161.8115,100.328
2162.7756,100.338
2163.7400,100.346
2164.7041,100.35
2165.6685,100.351
2166.6326,100.348
2167.5969,100.344
2168.5610,100.34
2169.5254,100.337
2170.4895,100.338
2171.4539,100.343
2172.4180,100.351
2173.3823,100.359
2174.3464,100.366
2175.3108,100.371
2176.2749,100.373
2177.2393,100.372
2178.2034,100.37
2179.1677,100.367
2180.1318,100.363
2181.0962,100.358
2182.0603,100.351
2183.0247,100.343
2183.9888,100.336
2184.9531,100.332
2185.9172,100.333
2186.8816,100.34
2187.8457,100.35
2188.8101,100.361
2189.7742,100.371
2190.7385,100.376
2191.7026,100.378
2192.6670,100.377
2193.6311,100.375
2194.5955,100.375
2195.5596,100.374
2196.5239,100.374
2197.4880,100.372
2198.4524,100.368
2199.4165,100.362
2200.3809,100.357
2201.3450,100.355
2202.3093,100.356
2203.2734,100.36
2204.2378,100.366
2205.2019,100.371
2206.1663,100.374
2207.1304,100.375
2208.0947,100.374
2209.0588,100.371
2210.0232,100.368
2210.9873,100.363
2211.9517,100.358
2212.9158,100.353
2213.8801,100.349
2214.8442,100.347
2215.8086,100.349
2216.7727,100.352
2217.7371,100.355
2218.7012,100.354
2219.6655,100.35
2220.6296,100.342
2221.5940,100.333
2222.5581,100.325
2223.5225,100.321
2224.4866,100.321
2225.4509,100.323
2226.4150,100.324
2227.3794,100.323
2228.3435,100.318
2229.3079,100.308
2230.2720,100.297
2231.2363,100.285
2232.2004,100.276
2233.1648,100.269
2234.1289,100.264
2235.0933,100.262
2236.0574,100.259
2237.0217,100.255
2237.9858,100.249
2238.9502,100.24
2239.9143,100.229
2240.8787,100.217
2241.8428,100.206
2242.8071,100.196
2243.7712,100.186
2244.7356,100.176
2245.6997,100.166
2246.6641,100.155
2247.6282,100.145
2248.5925,100.134
2249.5566,100.122
2250.5210,100.11
2251.4851,100.096
2252.4495,100.079
2253.4136,100.062
2254.3779,100.044
2255.3420,100.025
2256.3064,100.006
2257.2705,99.9878
2258.2349,99.9698
2259.1990,99.9526
2260.1633,99.9365
2261.1274,99.9219
2262.0918,99.9088
2263.0559,99.8974
2264.0203,99.8879
2264.9844,99.8807
2265.9487,99.8758
2266.9128,99.8722
2267.8772,99.8682
2268.8413,99.8622
2269.8057,99.8535
2270.7698,99.8429
2271.7341,99.8326
2272.6982,99.8248
2273.6626,99.8209
2274.6267,99.8212
2275.5911,99.8252
2276.5552,99.833
2277.5195,99.8448
2278.4836,99.8605
2279.4480,99.8785
2280.4121,99.8947
2281.3765,99.904
2282.3406,99.9015
2283.3049,99.8843
2284.2690,99.8526
2285.2334,99.8097
2286.1975,99.7609
2287.1619,99.711
2288.1260,99.6631
2289.0903,99.6172
2290.0544,99.5708
2291.0188,99.5221
2291.9829,99.4717
2292.9473,99.4235
2293.9114,99.3834
2294.8757,99.3558
2295.8398,99.3423
2296.8042,99.3417
2297.7683,99.3523
2298.7327,99.3748
2299.6968,99.4121
2300.6611,99.4666
2301.6252,99.536
2302.5896,99.6111
2303.5537,99.6776
2304.5181,99.7214
2305.4822,99.7362
2306.4465,99.7285
2307.4106,99.7173
2308.3750,99.7273
2309.3391,99.7778
2310.3035,99.8732
2311.2676,100
2312.2319,100.135
2313.1960,100.254
2314.1604,100.348
2315.1245,100.424
2316.0889,100.5
2317.0530,100.593
2318.0173,100.704
2318.9814,100.82
2319.9458,100.902
2320.9099,100.906
2321.8743,100.795
2322.8384,100.563
2323.8027,100.25
2324.7668,99.9285
2325.7312,99.6801
2326.6953,99.5613
2327.6597,99.5818
2328.6238,99.6973
2329.5881,99.8239
2330.5522,99.8738
2331.5166,99.7974
2332.4807,99.6069
2333.4451,99.3642
2334.4092,99.1432
2335.3735,98.9909
2336.3376,98.9097
2337.3020,98.8621
2338.2661,98.7947
2339.2305,98.6823
2340.1946,98.5325
2341.1589,98.4217
2342.1230,98.4826
2343.0874,98.8004
2344.0515,99.2596
2345.0159,99.5691
2345.9800,99.5404
2346.9443,99.2551
2347.9084,98.9452
2348.8728,98.8065
2349.8369,98.9019
2350.8013,99.1515
2351.7654,99.3791
2352.7297,99.416
2353.6938,99.2199
2354.6582,98.8903
2355.6223,98.5392
2356.5867,98.1948
2357.5508,97.854
2358.5151,97.5635
2359.4792,97.401
2360.4436,97.3961
2361.4077,97.5118
2362.3721,97.7038
2363.3362,97.9666
2364.3005,98.3163
2365.2646,98.7488
2366.2290,99.23
2367.1931,99.7166
2368.1575,100.178
2369.1216,100.596
2370.0859,100.959
2371.0500,101.254
2372.0144,101.471
2372.9785,101.603
2373.9429,101.647
2374.9070,101.602
2375.8713,101.477
2376.8354,101.283
2377.7998,101.042
2378.7639,100.783
2379.7283,100.533
2380.6924,100.317
2381.6567,100.152
2382.6208,100.042
2383.5852,99.9857
2384.5493,99.9704
2385.5137,99.9817
2386.4778,100.005
2387.4421,100.029
2388.4063,100.048
2389.3706,100.059
2390.3347,100.065
2391.2991,100.068
2392.2632,100.07
2393.2275,100.074
2394.1917,100.079
2395.1560,100.085
2396.1201,100.092
2397.0845,100.1
2398.0486,100.106
2399.0129,100.111
2399.9771,100.113
2400.9414,100.113
2401.9055,100.112
2402.8699,100.108
2403.8340,100.106
2404.7983,100.104
2405.7625,100.105
2406.7268,100.108
2407.6909,100.114
2408.6553,100.121
2409.6194,100.127
2410.5837,100.132
2411.5479,100.135
2412.5122,100.137
2413.4763,100.137
2414.4407,100.139
2415.4048,100.142
2416.3691,100.147
2417.3333,100.153
2418.2976,100.159
2419.2617,100.163
2420.2261,100.166
2421.1902,100.166
2422.1545,100.164
2423.1187,100.162
2424.0830,100.161
2425.0471,100.162
2426.0115,100.167
2426.9756,100.174
2427.9399,100.182
2428.9041,100.19
2429.8684,100.196
2430.8325,100.198
2431.7969,100.196
2432.7610,100.189
2433.7253,100.178
2434.6895,100.166
2435.6538,100.157
2436.6179,100.153
2437.5823,100.157
2438.5464,100.166
2439.5107,100.179
2440.4749,100.19
2441.4392,100.198
2442.4033,100.201
2443.3677,100.202
2444.3318,100.201
2445.2961,100.199
2446.2603,100.198
2447.2246,100.196
2448.1887,100.193
2449.1531,100.189
2450.1172,100.185
2451.0815,100.181
2452.0457,100.18
2453.0100,100.181
2453.9741,100.184
2454.9385,100.185
2455.9026,100.183
2456.8669,100.179
2457.8311,100.173
2458.7954,100.167
2459.7595,100.165
2460.7239,100.165
2461.6880,100.168
2462.6523,100.172
2463.6165,100.174
2464.5808,100.175
2465.5449,100.175
2466.5093,100.172
2467.4734,100.168
2468.4377,100.162
2469.4019,100.154
2470.3662,100.146
2471.3303,100.14
2472.2947,100.136
2473.2588,100.136
2474.2231,100.137
2475.1873,100.139
2476.1516,100.139
2477.1157,100.137
2478.0801,100.136
2479.0442,100.134
2480.0085,100.133
2480.9727,100.133
2481.9370,100.132
2482.9011,100.131
2483.8655,100.13
2484.8296,100.127
2485.7939,100.123
2486.7581,100.118
2487.7224,100.113
2488.6865,100.108
2489.6509,100.105
2490.6150,100.104
2491.5793,100.104
2492.5435,100.106
2493.5078,100.107
2494.4719,100.108
2495.4363,100.109
2496.4004,100.112
2497.3647,100.116
2498.3289,100.119
2499.2932,100.121
2500.2573,100.119
2501.2217,100.115
2502.1858,100.11
2503.1501,100.108
2504.1143,100.11
2505.0786,100.115
2506.0427,100.121
2507.0071,100.124
2507.9712,100.124
2508.9355,100.119
2509.8997,100.111
2510.8640,100.102
2511.8281,100.096
2512.7925,100.093
2513.7566,100.094
2514.7209,100.098
2515.6851,100.105
2516.6494,100.112
2517.6135,100.119
2518.5779,100.124
2519.5420,100.126
2520.5063,100.125
2521.4705,100.123
2522.4348,100.12
2523.3989,100.118
2524.3633,100.116
2525.3274,100.113
2526.2917,100.111
2527.2559,100.108
2528.2202,100.107
2529.1843,100.109
2530.1487,100.111
2531.1128,100.113
2532.0771,100.112
2533.0413,100.108
2534.0056,100.101
2534.9697,100.094
2535.9341,100.089
2536.8982,100.09
2537.8625,100.095
2538.8267,100.103
2539.7910,100.111
2540.7551,100.119
2541.7195,100.125
2542.6836,100.128
2543.6479,100.129
2544.6121,100.13
2545.5764,100.13
2546.5405,100.131
2547.5049,100.131
2548.4690,100.13
2549.4333,100.128
2550.3975,100.126
2551.3618,100.126
2552.3259,100.129
2553.2903,100.136
2554.2544,100.145
2555.2188,100.154
2556.1829,100.16
2557.1472,100.164
2558.1113,100.165
2559.0757,100.166
2560.0398,100.167
2561.0042,100.169
2561.9683,100.168
2562.9326,100.166
2563.8967,100.161
2564.8611,100.157
2565.8252,100.155
2566.7896,100.157
2567.7537,100.163
2568.7180,100.171
2569.6821,100.178
2570.6465,100.183
2571.6106,100.183
2572.5750,100.179
2573.5391,100.172
2574.5034,100.162
2575.4675,100.152
2576.4319,100.145
2577.3960,100.141
2578.3604,100.143
2579.3245,100.149
2580.2888,100.156
2581.2529,100.163
2582.2173,100.168
2583.1814,100.172
2584.1458,100.174
2585.1099,100.175
2586.0742,100.174
2587.0383,100.173
2588.0027,100.169
2588.9668,100.163
2589.9312,100.156
2590.8953,100.148
2591.8596,100.14
2592.8237,100.134
2593.7881,100.13
2594.7522,100.129
2595.7166,100.131
2596.6807,100.134
2597.6450,100.139
2598.6091,100.142
2599.5735,100.145
2600.5376,100.145
2601.5020,100.145
2602.4661,100.143
2603.4304,100.14
2604.3945,100.136
2605.3589,100.133
2606.3230,100.131
2607.2874,100.132
2608.2515,100.134
2609.2158,100.139
2610.1799,100.143
2611.1443,100.145
2612.1084,100.145
2613.0728,100.143
2614.0369,100.141
2615.0012,100.139
2615.9653,100.138
2616.9297,100.138
2617.8938,100.138
2618.8582,100.138
2619.8223,100.136
2620.7866,100.133
2621.7507,100.131
2622.7151,100.128
2623.6792,100.125
2624.6436,100.123
2625.6077,100.121
2626.5720,100.122
2627.5361,100.124
2628.5005,100.126
2629.4646,100.126
2630.4290,100.122
2631.3931,100.117
2632.3574,100.111
2633.3215,100.107
2634.2859,100.108
2635.2500,100.112
2636.2144,100.119
2637.1785,100.125
2638.1428,100.128
2639.1069,100.129
2640.0713,100.127
2641.0354,100.125
2641.9998,100.125
2642.9639,100.128
2643.9282,100.132
2644.8923,100.136
2645.8567,100.138
2646.8208,100.137
2647.7852,100.135
2648.7493,100.13
2649.7136,100.126
2650.6777,100.123
2651.6421,100.121
2652.6062,100.122
2653.5706,100.126
2654.5347,100.135
2655.4990,100.147
2656.4631,100.161
2657.4275,100.173
2658.3916,100.181
2659.3560,100.183
2660.3201,100.182
2661.2844,100.18
2662.2485,100.181
2663.2129,100.187
2664.1770,100.198
2665.1414,100.213
2666.1055,100.227
2667.0698,100.239
2668.0339,100.248
2668.9983,100.255
2669.9624,100.261
2670.9268,100.268
2671.8909,100.274
2672.8552,100.281
2673.8193,100.287
2674.7837,100.293
2675.7478,100.299
2676.7122,100.303
2677.6763,100.307
2678.6406,100.307
2679.6047,100.305
2680.5691,100.3
2681.5332,100.294
2682.4976,100.29
2683.4617,100.288
2684.4260,100.288
2685.3901,100.288
2686.3545,100.286
2687.3186,100.284
2688.2830,100.281
2689.2471,100.282
2690.2114,100.287
2691.1755,100.296
2692.1399,100.307
2693.1040,100.318
2694.0684,100.326
2695.0325,100.33
2695.9968,100.329
2696.9609,100.324
2697.9253,100.318
2698.8894,100.312
2699.8538,100.306
2700.8179,100.302
2701.7822,100.301
2702.7463,100.3
2703.7107,100.301
2704.6748,100.301
2705.6392,100.298
2706.6033,100.291
2707.5676,100.28
2708.5317,100.267
2709.4961,100.254
2710.4602,100.243
2711.4246,100.234
2712.3887,100.227
2713.3530,100.219
2714.3171,100.206
2715.2815,100.187
2716.2456,100.166
2717.2100,100.146
2718.1741,100.131
2719.1384,100.126
2720.1025,100.128
2721.0669,100.136
2722.0310,100.143
2722.9954,100.144
2723.9595,100.138
2724.9238,100.125
2725.8879,100.107
2726.8523,100.089
2727.8164,100.074
2728.7808,100.062
2729.7449,100.055
2730.7092,100.051
2731.6733,100.049
2732.6377,100.048
2733.6018,100.045
2734.5662,100.039
2735.5303,100.031
2736.4946,100.02
2737.4587,100.008
2738.4231,99.9978
2739.3872,99.9898
2740.3516,99.9845
2741.3157,99.9817
2742.2800,99.9812
2743.2441,99.9831
2744.2085,99.9878
2745.1726,99.9947
2746.1370,100.002
2747.1011,100.007
2748.0654,100.006
2749.0295,100
2749.9939,99.9906
2750.9580,99.9807
2751.9224,99.9734
2752.8865,99.9692
2753.8508,99.9662
2754.8149,99.9606
2755.7793,99.9493
2756.7434,99.9314
2757.7078,99.9085
2758.6719,99.8843
2759.6362,99.862
2760.6003,99.8437
2761.5647,99.8296
2762.5288,99.8183
2763.4932,99.8083
2764.4573,99.7982
2765.4216,99.7874
2766.3857,99.776
2767.3501,99.7641
2768.3142,99.752
2769.2786,99.7396
2770.2427,99.7258
2771.2070,99.7087
2772.1711,99.6862
2773.1355,99.657
2774.0996,99.6219
2775.0640,99.584
2776.0281,99.5472
2776.9924,99.5146
2777.9565,99.4861
2778.9209,99.4588
2779.8850,99.4284
2780.8494,99.3921
2781.8135,99.3504
2782.7778,99.3066
2783.7419,99.2657
2784.7063,99.2309
2785.6704,99.2024
2786.6348,99.1773
2787.5989,99.1507
2788.5632,99.1189
2789.5273,99.0812
2790.4917,99.037
2791.4558,98.9899
2792.4202,98.9441
2793.3843,98.9026
2794.3486,98.8655
2795.3127,98.8304
2796.2771,98.7932
2797.2412,98.7504
2798.2056,98.7005
2799.1697,98.6445
2800.1340,98.5852
2801.0981,98.5257
2802.0625,98.4682
2803.0266,98.4134
2803.9910,98.3609
2804.9551,98.3093
2805.9194,98.2566
2806.8835,98.2001
2807.8479,98.1367
2808.8120,98.0643
2809.7764,97.9821
2810.7405,97.891
2811.7048,97.7936
2812.6689,97.6925
2813.6333,97.5896
2814.5974,97.4849
2815.5618,97.3769
2816.5259,97.2624
2817.4902,97.1381
2818.4543,97.0006
2819.4187,96.8481
2820.3828,96.6804
2821.3472,96.4986
2822.3113,96.3043
2823.2756,96.0987
2824.2397,95.882
2825.2041,95.6533
2826.1682,95.4116
2827.1326,95.156
2828.0967,94.8859
2829.0610,94.6012
2830.0251,94.3016
2830.9895,93.9878
2831.9536,93.6625
2832.9180,93.3304
2833.8821,92.9979
2834.8464,92.6718
2835.8105,92.357
2836.7749,92.0557
2837.7390,91.7683
2838.7034,91.4938
2839.6675,91.2313
2840.6318,90.98
2841.5959,90.7379
2842.5603,90.5016
2843.5244,90.2664
2844.4888,90.0296
2845.4529,89.7929
2846.4172,89.5639
2847.3813,89.3543
2848.3457,89.1751
2849.3098,89.0313
2850.2742,88.9195
2851.2383,88.8289
2852.2026,88.7463
2853.1667,88.6614
2854.1311,88.5697
2855.0952,88.4716
2856.0596,88.369
2857.0237,88.2628
2857.9880,88.1511
2858.9521,88.0308
2859.9165,87.8992
2860.8806,87.7556
2861.8450,87.6018
2862.8091,87.4412
2863.7734,87.2777
2864.7375,87.1148
2865.7019,86.9552
2866.6660,86.8008
2867.6304,86.6521
2868.5945,86.5093
2869.5588,86.3721
2870.5229,86.2404
2871.4873,86.114
2872.4514,85.9929
2873.4158,85.8768
2874.3799,85.7658
2875.3442,85.6601
2876.3083,85.56
2877.2727,85.4655
2878.2368,85.3766
2879.2012,85.2931
2880.1653,85.2162
2881.1296,85.1491
2882.0938,85.0964
2883.0581,85.0628
2884.0222,85.051
2884.9866,85.0594
2885.9507,85.0826
2886.9150,85.1118
2887.8792,85.1377
2888.8435,85.1538
2889.8076,85.1584
2890.7720,85.1551
2891.7361,85.1505
2892.7004,85.1484
2893.6646,85.1447
2894.6289,85.1264
2895.5930,85.0763
2896.5574,84.9824
2897.5215,84.8475
2898.4858,84.6911
2899.4500,84.5421
2900.4143,84.4267
2901.3784,84.3559
2902.3428,84.322
2903.3069,84.3038
2904.2712,84.2777
2905.2354,84.2263
2906.1997,84.1426
2907.1638,84.0275
2908.1282,83.8864
2909.0923,83.7252
2910.0566,83.55
2911.0208,83.3669
2911.9851,83.1818
2912.9492,82.9999
2913.9136,82.8249
2914.8777,82.6586
2915.8420,82.5016
2916.8062,82.3528
2917.7705,82.2106
2918.7346,82.0729
2919.6990,81.9381
2920.6631,81.8062
2921.6274,81.6789
2922.5916,81.5583
2923.5559,81.4456
2924.5200,81.3397
2925.4844,81.2387
2926.4485,81.141
2927.4128,81.0479
2928.3770,80.9627
2929.3413,80.8903
2930.3054,80.8348
2931.2698,80.7993
2932.2339,80.7866
2933.1982,80.8004
2934.1624,80.8449
2935.1267,80.9235
2936.0908,81.0368
2937.0552,81.1818
2938.0193,81.3522
2938.9836,81.5419
2939.9478,81.7471
2940.9121,81.9674
2941.8762,82.2043
2942.8406,82.4585
2943.8047,82.7266
2944.7690,83.001
2945.7332,83.2716
2946.6975,83.5289
2947.6616,83.7668
2948.6260,83.9834
2949.5901,84.1801
2950.5544,84.3596
2951.5186,84.5247
2952.4829,84.678
2953.4470,84.8219
2954.4114,84.959
2955.3755,85.0921
2956.3398,85.2237
2957.3040,85.3555
2958.2683,85.4882
2959.2324,85.6213
2960.1968,85.7524
2961.1609,85.8782
2962.1252,85.9949
2963.0894,86.1003
2964.0537,86.195
2965.0178,86.2827
2965.9822,86.3691
2966.9463,86.4606
2967.9106,86.5625
2968.8748,86.6791
2969.8391,86.8133
2970.8032,86.9669
2971.7676,87.1403
2972.7317,87.3327
2973.6960,87.5414
2974.6602,87.7626
2975.6245,87.9927
2976.5886,88.2287
2977.5530,88.4696
2978.5171,88.7152
2979.4814,88.9659
2980.4456,89.2196
2981.4099,89.4699
2982.3740,89.7065
2983.3384,89.9187
2984.3025,90.1028
2985.2668,90.2682
2986.2310,90.4389
2987.1953,90.6457
2988.1594,90.9131
2989.1238,91.2455
2990.0879,91.623
2991.0522,92.009
2992.0164,92.3658
2992.9807,92.67
2993.9448,92.9195
2994.9092,93.1299
2995.8733,93.3231
2996.8376,93.5166
2997.8018,93.718
2998.7661,93.9267
2999.7302,94.1387
3000.6946,94.3513
3001.6587,94.5648
3002.6230,94.782
3003.5872,95.0053
3004.5515,95.2356
3005.5156,95.4704
3006.4800,95.7045
3007.4441,95.932
3008.4084,96.1486
3009.3726,96.3541
3010.3369,96.5532
3011.3010,96.7528
3012.2654,96.9583
3013.2295,97.1696
3014.1938,97.3807
3015.1580,97.5821
3016.1223,97.7658
3017.0864,97.9286
3018.0508,98.0728
3019.0149,98.2037
3019.9792,98.3274
3020.9434,98.4476
3021.9077,98.5656
3022.8718,98.6813
3023.8362,98.7931
3024.8003,98.8988
3025.7646,98.9954
3026.7288,99.0801
3027.6931,99.1522
3028.6572,99.2133
3029.6216,99.2683
3030.5857,99.3229
3031.5500,99.3818
3032.5142,99.4465
3033.4785,99.5154
3034.4426,99.5853
3035.4070,99.6529
3036.3711,99.7157
3037.3354,99.7715
3038.2996,99.8186
3039.2639,99.8552
3040.2280,99.8799
3041.1924,99.8924
3042.1565,99.8939
3043.1208,99.8867
3044.0850,99.8745
3045.0493,99.8619
3046.0134,99.8527
3046.9778,99.8206
3047.9419,99.7859
3048.9063,99.7491
3049.8704,99.7032
3050.8347,99.6433
3051.7988,99.5698
3052.7632,99.4885
3053.7273,99.4085
3054.6917,99.3384
3055.6558,99.2828
3056.6201,99.2408
3057.5842,99.2071
3058.5486,99.1734
3059.5127,99.1318
3060.4771,99.0768
3061.4412,99.0074
3062.4055,98.9276
3063.3696,98.8459
3064.3340,98.7717
3065.2981,98.7118
3066.2625,98.6672
3067.2266,98.6335
3068.1909,98.6037
3069.1550,98.5718
3070.1194,98.5345
3071.0835,98.4909
3072.0479,98.4406
3073.0120,98.3822
3073.9763,98.3141
3074.9404,98.2367
3075.9048,98.1535
3076.8689,98.0705
3077.8333,97.9946
3078.7974,97.9306
3079.7617,97.8791
3080.7258,97.8374
3081.6902,97.8004
3082.6543,97.7634
3083.6187,97.7224
3084.5828,97.6753
3085.5471,97.6211
3086.5112,97.5595
3087.4756,97.4912
3088.4397,97.417
3089.4041,97.3381
3090.3682,97.2557
3091.3325,97.1706
3092.2966,97.0837
3093.2610,96.9954
3094.2251,96.9055
3095.1895,96.8144
3096.1536,96.7226
3097.1179,96.6323
3098.0820,96.5458
3099.0464,96.4654
3100.0105,96.3915
3100.9749,96.3224
3101.9390,96.2551
3102.9033,96.187
3103.8674,96.1174
3104.8318,96.047
3105.7959,95.9765
3106.7603,95.9053
3107.7244,95.8306
3108.6887,95.7491
3109.6528,95.6591
3110.6172,95.561
3111.5813,95.4576
3112.5457,95.3526
3113.5098,95.2496
3114.4741,95.1512
3115.4382,95.0591
3116.4026,94.9739
3117.3667,94.8943
3118.3311,94.8178
3119.2952,94.7412
3120.2595,94.6624
3121.2236,94.5812
3122.1880,94.4996
3123.1521,94.4203
3124.1165,94.3449
3125.0806,94.2728
3126.0449,94.2011
3127.0090,94.1256
3127.9734,94.0431
3128.9375,93.9525
3129.9019,93.856
3130.8660,93.7576
3131.8303,93.6625
3132.7944,93.5742
3133.7588,93.4934
3134.7229,93.4171
3135.6873,93.3407
3136.6514,93.2602
3137.6157,93.1746
3138.5798,93.086
3139.5442,92.9982
3140.5083,92.9134
3141.4727,92.8308
3142.4368,92.7464
3143.4011,92.6557
3144.3652,92.5562
3145.3296,92.4492
3146.2937,92.3394
3147.2581,92.2326
3148.2222,92.1323
3149.1865,92.0391
3150.1506,91.9505
3151.1150,91.8633
3152.0791,91.7754
3153.0435,91.6865
3154.0076,91.5971
3154.9719,91.5076
3155.9360,91.4168
3156.9004,91.3229
3157.8645,91.2246
3158.8289,91.1224
3159.7930,91.0188
3160.7573,90.9172
3161.7214,90.8197
3162.6858,90.7266
3163.6499,90.6364
3164.6143,90.5473
3165.5784,90.4585
3166.5427,90.3706
3167.5068,90.284
3168.4712,90.1977
3169.4353,90.1558
3170.3997,90.0584
3171.3638,89.9495
3172.3281,89.8294
3173.2922,89.7033
3174.2566,89.5793
3175.2207,89.4654
3176.1851,89.366
3177.1492,89.2797
3178.1135,89.2003
3179.0776,89.1193
3180.0420,89.0309
3181.0061,88.9345
3181.9705,88.8348
3182.9346,88.7389
3183.8989,88.652
3184.8630,88.5738
3185.8274,88.4989
3186.7915,88.4191
3187.7559,88.3287
3188.7200,88.2275
3189.6843,88.1206
3190.6484,88.0151
3191.6128,87.9161
3192.5769,87.8241
3193.5413,87.7357
3194.5054,87.646
3195.4697,87.5525
3196.4338,87.4559
3197.3982,87.3604
3198.3623,87.2701
3199.3267,87.1875
3200.2908,87.1112
3201.2551,87.0373
3202.2192,86.9611
3203.1836,86.8785
3204.1477,86.7883
3205.1121,86.692
3206.0762,86.5933
3207.0405,86.4962
3208.0046,86.4032
3208.9690,86.3147
3209.9331,86.2291
3210.8975,86.1443
3211.8616,86.0596
3212.8259,85.9757
3213.7900,85.894
3214.7544,85.8153
3215.7185,85.7387
3216.6829,85.6619
3217.6470,85.5829
3218.6113,85.5012
3219.5754,85.4182
3220.5398,85.3365
3221.5039,85.258
3222.4683,85.1827
3223.4324,85.1087
3224.3967,85.034
3225.3608,84.9582
3226.3252,84.8828
3227.2893,84.811
3228.2537,84.7448
3229.2178,84.6839
3230.1821,84.6246
3231.1462,84.5616
3232.1106,84.491
3233.0747,84.4122
3234.0391,84.3291
3235.0032,84.2477
3235.9675,84.173
3236.9316,84.1067
3237.8960,84.0457
3238.8601,83.9845
3239.8245,83.9178
3240.7886,83.844
3241.7529,83.7656
3242.7170,83.688
3243.6814,83.6173
3244.6455,83.5568
3245.6099,83.5064
3246.5740,83.4618
3247.5383,83.4177
3248.5024,83.3691
3249.4668,83.3129
3250.4309,83.2485
3251.3953,83.1773
3252.3594,83.1025
3253.3237,83.0279
3254.2878,82.9571
3255.2522,82.8926
3256.2163,82.8353
3257.1807,82.7847
3258.1448,82.7392
3259.1091,82.6964
3260.0732,82.6533
3261.0376,82.6068
3262.0017,82.5546
3262.9661,82.4958
3263.9302,82.431
3264.8945,82.3619
3265.8586,82.29
3266.8230,82.2166
3267.7871,82.1429
3268.7515,82.0704
3269.7156,82.0018
3270.6799,81.9406
3271.6440,81.8892
3272.6084,81.8478
3273.5725,81.8134
3274.5369,81.7815
3275.5010,81.7477
3276.4653,81.7102
3277.4294,81.6699
3278.3938,81.6298
3279.3579,81.5925
3280.3223,81.559
3281.2864,81.5275
3282.2507,81.495
3283.2148,81.4578
3284.1792,81.4134
3285.1433,81.3611
3286.1077,81.3021
3287.0718,81.2394
3288.0361,81.1764
3289.0002,81.1167
3289.9646,81.0634
3290.9287,81.018
3291.8931,80.9807
3292.8572,80.9503
3293.8215,80.924
3294.7856,80.8981
3295.7500,80.8686
3296.7141,80.832
3297.6785,80.7873
3298.6426,80.7369
3299.6069,80.6855
3300.5710,80.6386
3301.5354,80.5995
3302.4995,80.5677
3303.4639,80.5395
3304.4280,80.5101
3305.3923,80.4769
3306.3564,80.4408
3307.3208,80.4057
3308.2849,80.3766
3309.2493,80.3564
3310.2134,80.3447
3311.1777,80.3378
3312.1418,80.33
3313.1062,80.3158
3314.0703,80.2923
3315.0347,80.2597
3315.9988,80.2216
3316.9631,80.1832
3317.9272,80.1492
3318.8916,80.1213
3319.8557,80.0985
3320.8201,80.0773
3321.7842,80.0544
3322.7485,80.0281
3323.7126,79.9989
3324.6770,79.9694
3325.6411,79.9424
3326.6055,79.9204
3327.5696,79.9041
3328.5339,79.8923
3329.4980,79.8817
3330.4624,79.8681
3331.4265,79.8477
3332.3909,79.8188
3333.3550,79.7834
3334.3193,79.7464
3335.2834,79.714
3336.2478,79.6909
3337.2119,79.6782
3338.1763,79.6739
3339.1404,79.6735
3340.1047,79.673
3341.0688,79.6685
3342.0332,79.6575
3342.9973,79.6384
3343.9617,79.6118
3344.9258,79.5808
3345.8901,79.5513
3346.8542,79.5305
3347.8186,79.5239
3348.7827,79.5321
3349.7471,79.5501
3350.7112,79.5689
3351.6755,79.579
3352.6396,79.5743
3353.6040,79.554
3354.5681,79.5224
3355.5325,79.4868
3356.4966,79.4554
3357.4609,79.4342
3358.4250,79.4253
3359.3894,79.4261
3360.3535,79.4304
3361.3179,79.4309
3362.2820,79.4234
3363.2463,79.4088
3364.2104,79.3939
3365.1748,79.3876
3366.1389,79.3962
3367.1033,79.4199
3368.0674,79.4525
3369.0317,79.4854
3369.9958,79.5113
3370.9602,79.5271
3371.9243,79.5332
3372.8887,79.532
3373.8528,79.5268
3374.8171,79.5213
3375.7813,79.5194
3376.7456,79.5247
3377.7097,79.5391
3378.6741,79.5611
3379.6382,79.5874
3380.6025,79.6138
3381.5667,79.6377
3382.5310,79.6579
3383.4951,79.6732
3384.4595,79.6822
3385.4236,79.6833
3386.3879,79.6772
3387.3521,79.669
3388.3164,79.6667
3389.2805,79.6773
3390.2449,79.7028
3391.2090,79.7386
3392.1733,79.7761
3393.1375,79.8084
3394.1018,79.8349
3395.0659,79.8611
3396.0303,79.8942
3396.9944,79.9373
3397.9587,79.9869
3398.9229,80.0356
3399.8872,80.0766
3400.8513,80.108
3401.8157,80.1334
3402.7798,80.1582
3403.7441,80.187
3404.7083,80.2215
3405.6726,80.2613
3406.6367,80.3055
3407.6011,80.3532
3408.5652,80.4033
3409.5295,80.4537
3410.4937,80.5017
3411.4580,80.5449
3412.4221,80.5819
3413.3865,80.612
3414.3506,80.6352
3415.3149,80.6519
3416.2791,80.6639
3417.2434,80.6763
3418.2075,80.6981
3419.1719,80.7396
3420.1360,80.8066
3421.1003,80.8956
3422.0645,80.994
3423.0288,81.0864
3423.9929,81.1636
3424.9573,81.2259
3425.9214,81.282
3426.8857,81.343
3427.8499,81.4153
3428.8142,81.4975
3429.7783,81.5812
3430.7427,81.6563
3431.7068,81.7173
3432.6711,81.7654
3433.6353,81.8078
3434.5996,81.8528
3435.5637,81.9057
3436.5281,81.9664
3437.4922,82.0306
3438.4565,82.0925
3439.4207,82.1477
3440.3850,82.1955
3441.3491,82.2385
3442.3135,82.2816
3443.2776,82.3297
3444.2419,82.3871
3445.2061,82.4559
3446.1704,82.5364
3447.1345,82.6259
3448.0989,82.7205
3449.0630,82.8163
3450.0273,82.9118
3450.9915,83.0068
3451.9558,83.1009
3452.9199,83.1919
3453.8843,83.2757
3454.8484,83.3487
3455.8127,83.4099
3456.7769,83.4619
3457.7412,83.5106
3458.7053,83.5627
3459.6697,83.6237
3460.6338,83.6949
3461.5981,83.774
3462.5623,83.8563
3463.5266,83.9381
3464.4907,84.0189
3465.4551,84.1009
3466.4192,84.1868
3467.3835,84.2761
3468.3477,84.3646
3469.3120,84.4467
3470.2761,84.5195
3471.2405,84.5864
3472.2046,84.6555
3473.1689,84.7355
3474.1331,84.8296
3475.0974,84.9325
3476.0615,85.0327
3477.0259,85.1194
3477.9900,85.1885
3478.9543,85.2449
3479.9185,85.3
3480.8828,85.365
3481.8469,85.4451
3482.8113,85.5369
3483.7754,85.6326
3484.7397,85.7264
3485.7039,85.8185
3486.6682,85.9137
3487.6323,86.0172
3488.5967,86.13
3489.5608,86.2467
3490.5251,86.3581
3491.4893,86.457
3492.4536,86.5422
3493.4177,86.6187
3494.3821,86.6952
3495.3462,86.7772
3496.3105,86.8629
3497.2747,86.9439
3498.2390,87.0124
3499.2031,87.068
3500.1675,87.121
3501.1316,87.1892
3502.0959,87.2889
3503.0601,87.422
3504.0244,87.5724
3504.9885,87.7183
3505.9529,87.847
3506.9170,87.9601
3507.8813,88.0675
3508.8455,88.1797
3509.8098,88.301
3510.7739,88.4276
3511.7383,88.5527
3512.7024,88.6727
3513.6667,88.7895
3514.6309,88.9065
3515.5952,89.023
3516.5593,89.1331
3517.5237,89.229
3518.4878,89.3061
3519.4521,89.3678
3520.4163,89.4239
3521.3806,89.4873
3522.3447,89.5668
3523.3091,89.6634
3524.2732,89.7707
3525.2375,89.8824
3526.2017,89.9986
3527.1660,90.1258
3528.1301,90.2705
3529.0945,90.431
3530.0586,90.5957
3531.0229,90.7516
3531.9871,90.8918
3532.9514,91.0183
3533.9155,91.1396
3534.8799,91.2654
3535.8440,91.4003
3536.8083,91.5393
3537.7725,91.6685
3538.7368,91.7739
3539.7009,91.8491
3540.6653,91.8994
3541.6294,91.9395
3542.5938,91.9915
3543.5579,92.0807
3544.5222,92.2246
3545.4863,92.4168
3546.4507,92.6251
3547.4148,92.8135
3548.3792,92.9677
3549.3433,93.099
3550.3076,93.2298
3551.2717,93.3777
3552.2361,93.5455
3553.2002,93.719
3554.1646,93.8779
3555.1287,94.0098
3556.0930,94.1166
3557.0571,94.2076
3558.0215,94.2899
3558.9856,94.364
3559.9500,94.4246
3560.9141,94.4668
3561.8784,94.4902
3562.8425,94.501
3563.8069,94.5127
3564.7710,94.5583
3565.7354,94.6964
3566.6995,94.9649
3567.6638,95.3071
3568.6279,95.6057
3569.5923,95.7989
3570.5564,95.9082
3571.5208,95.9828
3572.4849,96.0549
3573.4492,96.1323
3574.4133,96.2104
3575.3777,96.2862
3576.3418,96.3629
3577.3062,96.4454
3578.2703,96.5341
3579.2346,96.6214
3580.1987,96.6965
3581.1631,96.7536
3582.1272,96.7959
3583.0916,96.8302
3584.0557,96.8594
3585.0200,96.8885
3585.9841,96.9396
3586.9485,97.0409
3587.9126,97.1752
3588.8770,97.2784
3589.8411,97.3113
3590.8054,97.291
3591.7695,97.2566
3592.7339,97.2372
3593.6980,97.2446
3594.6624,97.275
3595.6265,97.312
3596.5908,97.3395
3597.5549,97.3589
3598.5193,97.3912
3599.4834,97.4604
3600.4478,97.5728
3601.4119,97.7099
3602.3762,97.8452
3603.3403,97.9649
3604.3047,98.0717
3605.2688,98.1751
3606.2332,98.2841
3607.1973,98.4029
3608.1616,98.5218
3609.1257,98.6138
3610.0901,98.6527
3611.0542,98.6339
3612.0186,98.578
3612.9829,98.5176
3613.9470,98.4798
3614.9114,98.4778
3615.8755,98.5108
3616.8398,98.572
3617.8040,98.6554
3618.7683,98.7505
3619.7324,98.8249
3620.6968,98.8334
3621.6609,98.7673
3622.6252,98.6751
3623.5894,98.6269
3624.5537,98.6645
3625.5178,98.7777
3626.4822,98.9198
3627.4463,99.0598
3628.4106,99.2038
3629.3748,99.3236
3630.3391,99.3531
3631.3032,99.2953
3632.2676,99.2253
3633.2317,99.2096
3634.1960,99.2635
3635.1602,99.3591
3636.1245,99.4551
3637.0886,99.5234
3638.0530,99.5579
3639.0171,99.5661
3639.9814,99.5573
3640.9456,99.5386
3641.9099,99.5195
3642.8740,99.5138
3643.8384,99.5298
3644.8025,99.5493
3645.7668,99.5164
3646.7310,99.3794
3647.6953,99.2191
3648.6594,99.268
3649.6238,99.5591
3650.5879,99.8214
3651.5522,99.9004
3652.5164,99.8611
3653.4807,99.8084
3654.4448,99.79
3655.4092,99.8006
3656.3733,99.814
3657.3376,99.809
3658.3018,99.7838
3659.2661,99.7584
3660.2302,99.7543
3661.1946,99.7736
3662.1587,99.7986
3663.1230,99.8129
3664.0872,99.8195
3665.0515,99.8337
3666.0156,99.8573
3666.9800,99.8641
3667.9441,99.8235
3668.9084,99.7492
3669.8726,99.6934
3670.8369,99.6844
3671.8010,99.7091
3672.7654,99.7394
3673.7295,99.7492
3674.6938,99.7424
3675.6580,99.7564
3676.6223,99.7936
3677.5864,99.8105
3678.5508,99.7943
3679.5149,99.7712
3680.4792,99.7586
3681.4434,99.7504
3682.4077,99.7385
3683.3718,99.7317
3684.3362,99.748
3685.3003,99.7855
3686.2646,99.8021
3687.2288,99.7412
3688.1931,99.6087
3689.1572,99.5007
3690.1216,99.4872
3691.0857,99.5332
3692.0500,99.583
3693.0142,99.6229
3693.9785,99.6608
3694.9426,99.7029
3695.9070,99.7512
3696.8711,99.8074
3697.8354,99.8716
3698.7996,99.9385
3699.7639,99.9991
3700.7280,100.047
3701.6924,100.078
3702.6565,100.09
3703.6208,100.081
3704.5850,100.061
3705.5493,100.047
3706.5134,100.046
3707.4778,100.044
3708.4419,100.027
3709.4063,100.033
3710.3704,100.156
3711.3347,100.425
3712.2988,100.718
3713.2632,100.883
3714.2273,100.898
3715.1917,100.826
3716.1558,100.728
3717.1201,100.63
3718.0842,100.527
3719.0486,100.406
3720.0127,100.266
3720.9771,100.123
3721.9412,99.9988
3722.9055,99.9146
3723.8696,99.8825
3724.8340,99.9004
3725.7981,99.951
3726.7625,100.014
3727.7266,100.08
3728.6909,100.153
3729.6550,100.229
3730.6194,100.283
3731.5835,100.277
3732.5479,100.196
3733.5120,100.104
3734.4763,100.12
3735.4404,100.27
3736.4048,100.428
3737.3689,100.492
3738.3333,100.502
3739.2974,100.574
3740.2617,100.793
3741.2258,101.152
3742.1902,101.536
3743.1543,101.78
3744.1187,101.767
3745.0828,101.521
3746.0471,101.169
3747.0112,100.846
3747.9756,100.632
3748.9397,100.557
3749.9041,100.637
3750.8682,100.845
3751.8325,101.033
3752.7966,101.06
3753.7610,100.94
3754.7251,100.779
3755.6895,100.659
3756.6536,100.604
3757.6179,100.613
3758.5820,100.667
3759.5464,100.738
3760.5105,100.792
3761.4749,100.817
3762.4390,100.821
3763.4033,100.821
3764.3674,100.824
3765.3318,100.832
3766.2959,100.843
3767.2603,100.858
3768.2244,100.881
3769.1887,100.914
3770.1528,100.949
3771.1172,100.969
3772.0813,100.958
3773.0457,100.921
3774.0098,100.877
3774.9741,100.844
3775.9382,100.823
3776.9026,100.807
3777.8667,100.796
3778.8311,100.792
3779.7952,100.786
3780.7595,100.758
3781.7236,100.704
3782.6880,100.638
3783.6521,100.584
3784.6165,100.566
3785.5806,100.594
3786.5449,100.659
3787.5090,100.737
3788.4734,100.807
3789.4375,100.857
3790.4019,100.888
3791.3660,100.9
3792.3303,100.885
3793.2944,100.83
3794.2588,100.732
3795.2229,100.609
3796.1873,100.5
3797.1514,100.438
3798.1157,100.428
3799.0798,100.449
3800.0442,100.474
3801.0083,100.489
3801.9727,100.495
3802.9368,100.5
3803.9011,100.527
3804.8652,100.599
3805.8296,100.711
3806.7937,100.818
3807.7581,100.858
3808.7222,100.804
3809.6865,100.697
3810.6506,100.618
3811.6150,100.623
3812.5791,100.699
3813.5435,100.777
3814.5076,100.783
3815.4719,100.694
3816.4360,100.549
3817.4004,100.405
3818.3645,100.305
3819.3289,100.274
3820.2930,100.31
3821.2573,100.37
3822.2214,100.386
3823.1858,100.33
3824.1499,100.242
3825.1143,100.183
3826.0784,100.193
3827.0427,100.265
3828.0068,100.365
3828.9712,100.453
3829.9353,100.502
3830.8997,100.509
3831.8638,100.493
3832.8281,100.472
3833.7922,100.453
3834.7566,100.42
3835.7207,100.347
3836.6851,100.225
3837.6492,100.088
3838.6135,99.9914
3839.5776,99.9672
3840.5420,100.013
3841.5061,100.109
3842.4705,100.23
3843.4346,100.333
3844.3989,100.375
3845.3630,100.338
3846.3274,100.253
3847.2915,100.192
3848.2559,100.233
3849.2200,100.413
3850.1843,100.699
3851.1484,100.995
3852.1128,101.218
3853.0769,101.356
3854.0413,101.35
3855.0054,101.121
3855.9697,100.754
3856.9338,100.42
3857.8982,100.229
3858.8623,100.191
3859.8267,100.242
3860.7908,100.293
3861.7551,100.286
3862.7192,100.233
3863.6836,100.19
3864.6477,100.198
3865.6121,100.254
3866.5762,100.327
3867.5405,100.381
3868.5046,100.393
3869.4690,100.365
3870.4331,100.328
3871.3975,100.311
3872.3616,100.313
3873.3259,100.319
3874.2900,100.323
3875.2544,100.328
3876.2185,100.341
3877.1829,100.351
3878.1470,100.341
3879.1113,100.301
3880.0754,100.249
3881.0398,100.224
3882.0039,100.256
3882.9683,100.348
3883.9324,100.469
3884.8967,100.572
3885.8608,100.611
3886.8252,100.575
3887.7893,100.488
3888.7537,100.386
3889.7178,100.296
3890.6821,100.229
3891.6462,100.189
3892.6106,100.165
3893.5747,100.145
3894.5391,100.14
3895.5032,100.169
3896.4675,100.234
3897.4316,100.306
3898.3960,100.35
3899.3601,100.344
3900.3245,100.297
3901.2886,100.228
3902.2529,100.167
3903.2170,100.138
3904.1814,100.142
3905.1455,100.157
3906.1099,100.164
3907.0740,100.163
3908.0383,100.164
3909.0024,100.172
3909.9668,100.183
3910.9309,100.189
3911.8953,100.185
3912.8594,100.177
3913.8237,100.168
3914.7878,100.163
3915.7522,100.162
3916.7163,100.165
3917.6807,100.164
3918.6448,100.145
3919.6091,100.099
3920.5732,100.032
3921.5376,99.9624
3922.5017,99.9103
3923.4661,99.8861
3924.4302,99.8867
3925.3945,99.8956
3926.3586,99.8943
3927.3230,99.8754
3928.2871,99.8438
3929.2515,99.8116
3930.2156,99.7954
3931.1799,99.8111
3932.1440,99.8607
3933.1084,99.9265
3934.0725,99.9846
3935.0369,100.022
3936.0010,100.038
3936.9653,100.039
3937.9294,100.024
3938.8938,99.9934
3939.8579,99.9484
3940.8223,99.8981
3941.7864,99.8575
3942.7507,99.8387
3943.7148,99.8407
3944.6792,99.8512
3945.6433,99.8553
3946.6077,99.8431
3947.5718,99.8147
3948.5361,99.7809
3949.5002,99.7571
3950.4646,99.7525
3951.4287,99.7663
3952.3931,99.7908
3953.3572,99.8171
3954.3215,99.8366
3955.2856,99.8429
3956.2500,99.8331
3957.2141,99.8087
3958.1785,99.7764
3959.1426,99.7462
3960.1069,99.7298
3961.0710,99.735
3962.0354,99.7612
3962.9995,99.7981
3963.9639,99.831
3964.9280,99.8478
3965.8923,99.8441
3966.8564,99.8232
3967.8208,99.7927
3968.7849,99.76
3969.7493,99.73
3970.7134,99.7048
3971.6777,99.6862
3972.6418,99.677
3973.6062,99.6793
3974.5703,99.6928
3975.5347,99.7124
3976.4988,99.7307
3977.4631,99.7411
3978.4272,99.7411
3979.3916,99.732
3980.3557,99.7179
3981.3201,99.7026
3982.2842,99.6885
3983.2485,99.6764
3984.2126,99.6659
3985.1770,99.6568
3986.1411,99.6491
3987.1055,99.6419
3988.0696,99.6335
3989.0339,99.6208
3989.9980,99.6019
3990.9624,99.5777
3991.9265,99.5529
3992.8909,99.5347
3993.8550,99.5293
3994.8193,99.5379
3995.7834,99.5555
3996.7478,99.5723
3997.7119,99.5791
3998.6763,99.5723
3999.6404,99.5554
4000.6047,99.3379

##### Extended Information
[Comments]
Sample name
Comment
User
Division
Company,HANKYONG

[Detailed Information]
Creation date,4/24/2024 11:43 AM

Data array type,Linear data array
Horizontal axis,Wavenumber [cm-1]
Vertical axis,%T
Start,649.893 cm-1
End,4000.6 cm-1
Data interval,0.964233 cm-1
Data points,3476    

[Measurement Information]
Model Name,FT/IR-4700typeA
Serial Number,D056761788

Accessory,ATR PRO ONE
Accessory S/N,C174761809
Incident angle,45 deg

Measurement Date,4/24/2024 11:42 AM

Light Source,Standard
Detector,TGS
Accumulation,32
Resolution,4 cm-1
Zero Filling,On
Apodization,Cosine
Gain,Auto (4)
Aperture,Auto (7.1 mm)
Scanning Speed,Auto (2 mm/sec)
Filter,Auto (30000 Hz)

